strain,stress
0.00134,32.134
0.00154,35.382
0.00177,38.396
0.00195,41.211
0.00217,44.202
0.00236,46.433
0.00254,49.639
0.00277,52.578
0.00295,55.402
0.00318,58.632
0.00335,61.306
0.0036,64.311
0.00377,66.862
0.00399,69.431
0.00418,71.686
0.00437,74.756
0.00459,77.594
0.00474,81.035
0.00499,84.247
0.00513,87.721
0.00537,91.979
0.00555,95.677
0.00576,98.791
0.00594,102.81
0.00614,106.94
0.00634,111.25
0.00652,115.48
0.00674,119.94
0.0069,124.26
0.00715,129.14
0.00732,133.9
0.00752,137.75
0.00772,142.59
0.00792,147.05
0.00813,151.28
0.00832,156
0.00854,159.7
0.00871,164.3
0.00893,168.7
0.00912,172.98
0.00934,176.86
0.00952,180.78
0.00974,184.79
0.00994,188.15
0.01012,192.28
0.01035,196.19
0.01053,199.38
0.01077,203.28
0.01093,205.68
0.01115,209.44
0.01134,212.15
0.01156,214.88
0.01175,217.34
0.01192,220.48
0.01218,223.29
0.01232,225
0.01256,228.15
0.01276,229.91
0.01296,231.55
0.01315,233.43
0.01333,234.99
0.01358,238.3
0.01374,239.53
0.01398,241.49
0.01417,241.85
0.01433,243.04
0.01457,246.78
0.01478,247.5
0.01499,248.2
0.01523,248.92
0.01541,247.94
0.0156,248.57
0.0158,248.75
0.01599,249.9
0.01622,250.17
0.01636,251.2
0.01662,253.4
0.0168,254.47
0.01701,255.33
0.01723,255.01
0.0174,255.71
0.0176,256.53
0.01779,257.69
0.01801,258.23
0.01816,259.14
0.0184,260.49
0.01858,260.61
0.01878,261.46
0.01898,262.19
0.01918,262.9
0.0194,264.06
0.01958,264.18
0.0198,265.14
0.01997,265.73
0.02021,266.77
0.02041,267.38
0.02061,266.54
0.0208,267.5
0.021,268.42
0.0212,268.61
0.0214,268.94
0.0216,269.24
0.02177,269.74
0.02198,270.13
0.02219,270.01
0.02237,270.02
0.02258,270.51
0.02278,271.08
0.02299,271.1
0.02317,271.8
0.0234,272.29
0.02359,272.38
0.02379,272.86
0.02399,273.57
0.02418,273.9
0.0244,274.19
0.0246,274.78
0.0248,273.96
0.02497,273.79
0.02513,274.69
0.02534,277.1
0.02558,278.27
0.02577,277.98
0.02601,277.54
0.0262,276.46
0.02639,276.21
0.02659,276.28
0.02679,276.8
0.02701,276.48
0.02719,276.69
0.02742,276.61
0.02758,276.61
0.02778,277.24
0.02801,277.7
0.02818,277.15
0.02839,277.06
0.02858,277.2
0.0288,276.55
0.029,276.21
0.02917,275.3
0.0294,276.85
0.0296,276.93
0.02978,277.19
0.03001,277.65
0.03021,277.59
0.03041,277.98
0.0306,278.04
0.03081,278.55
0.03101,278.07
0.03119,277.44
0.03137,277.58
0.03156,278.3
0.0318,278.92
0.03199,278.71
0.03219,278.63
0.03241,279.09
0.0326,278.7
0.0328,278.74
0.03298,279.24
0.03321,280.09
0.03342,280.09
0.0336,280.22
0.03382,281.05
0.03401,280.73
0.03425,280.07
0.03438,278.38
0.0346,278.45
0.03477,278.4
0.03499,279.76
0.03519,279.89
0.03538,279.22
0.03559,279.72
0.03578,280.2
0.03598,280.18
0.03619,282.29
0.03641,281.74
0.03659,282.75
0.03681,282.72
0.03703,282.51
0.0372,282.22
0.0374,281.08
0.03755,282.46
0.03782,282.89
0.03798,282.57
0.03818,282.32
0.03836,282.13
0.03858,282.18
0.03878,281.83
0.03899,282.05
0.03923,281.08
0.03937,279.86
0.0396,280.92
0.03979,280.73
0.03999,281.33
0.04019,281.54
0.04038,281.76
0.0406,281.9
0.04078,281.69
0.041,281.83
0.04117,281.01
0.04141,281.21
0.04158,280.54
0.0418,280.9
0.042,280.35
0.04219,280.46
0.0424,280.61
0.04257,280.94
0.04281,282.2
0.04299,282.26
0.0432,282.44
0.04341,282.69
0.0436,282.44
0.0438,282.04
0.044,281.72
0.0442,281.22
0.04439,280.8
0.04459,280.51
0.04479,280.57
0.04502,279.77
0.0452,278.87
0.04539,278.9
0.0456,279.19
0.04579,279.99
0.04603,279.88
0.0462,279.28
0.04643,279.23
0.04661,279.26
0.04684,278.95
0.04699,278.6
0.04723,279.4
0.04738,278.82
0.04759,279.73
0.04781,278.98
0.04797,278.66
0.04822,279.03
0.04839,279.21
0.04863,279.44
0.04883,278.85
0.04903,278.6
0.04923,278.3
0.04937,278.55
0.04963,280
0.04981,279.1
0.05002,278.7
0.05019,278.6
0.0504,279.01
0.0506,278.86
0.05081,278.15
0.05101,278.63
0.05119,278.38
0.05141,279.15
0.05161,279
0.05181,278.36
0.052,278.51
0.05223,278.18
0.05242,277.46
0.05261,277.31
0.05282,276.37
0.05299,275.89
0.05318,276.17
0.05336,276.63
0.05358,276.91
0.05376,277.03
0.05396,278.05
0.05417,278.95
0.05438,279.4
0.05462,278.48
0.05479,278.01
0.05503,276.69
0.0552,276.61
0.05543,276.05
0.05559,275.26
0.05581,275.53
0.05599,275.61
0.0562,275.89
0.05642,276.58
0.05657,276.04
0.05682,276.08
0.05697,275.66
0.05718,275.78
0.05738,276.16
0.0576,275.53
0.05779,275.06
0.05798,274.95
0.05819,275.46
0.0584,275.87
0.05861,276.1
0.05878,276.75
0.059,276.82
0.05922,277.41
0.05942,276.07
0.05963,275.1
0.0598,273.95
0.05998,272.63
0.06017,273.38
0.06037,274.18
0.06059,274.52
0.06081,274.06
0.061,273.81
0.06122,273.34
0.06141,272.86
0.06162,273.24
0.06181,272.74
0.062,273.6
0.06222,273.04
0.06241,272.75
0.0626,272.66
0.06279,273.38
0.06301,273.34
0.06317,272.5
0.06337,273.17
0.06361,272.67
0.06377,272.01
0.064,272.68
0.0642,272.42
0.06442,271.69
0.0646,271.84
0.06481,272.2
0.06503,272.1
0.06521,271.1
0.06541,271.2
0.0656,271.54
0.06586,271.67
0.066,271.48
0.06624,271.41
0.06641,271.09
0.0666,271.01
0.06681,271.32
0.067,271.03
0.06722,270.85
0.06738,270.44
0.06758,270.61
0.0678,270.94
0.068,269.91
0.06818,270.23
0.0684,270.17
0.06861,270
0.06878,269.86
0.06902,270.59
0.06923,269.98
0.06943,269.06
0.06959,269.1
0.06983,269.7
0.07001,268.67
0.0702,268.81
0.0704,268.77
0.07059,268.43
0.07079,267.97
0.07096,268.21
0.07119,268.29
0.07136,267.93
0.07158,268.1
0.0718,267.76
0.07198,267.74
0.0722,267.5
0.07238,267.42
0.07262,267.28
0.07279,266.84
0.07302,266.6
0.07319,266.65
0.07342,266.92
0.07362,266.37
0.07378,266.18
0.074,266.65
0.07419,266.17
0.0744,265.66
0.07457,266.6
0.0748,266.14
0.075,265.55
0.07518,264.79
0.07541,265.15
0.07559,265.07
0.07583,265.22
0.07601,264.64
0.07622,264.75
0.0764,265.09
0.07663,264.48
0.07683,264.3
0.077,264.31
0.07721,264.5
0.07739,263.69
0.07761,263.78
0.07778,263.81
0.078,264.29
0.07818,263.57
0.07841,263.68
0.07858,263.19
0.07882,263.32
0.07901,262.71
0.0792,262.78
0.07942,262.55
0.07959,262.59
0.07984,262.73
0.08002,261.82
0.08023,262.06
0.08041,262.14
0.08063,262.19
0.08082,261.42
0.081,261.38
0.08123,260.87
0.08139,261.17
0.0816,261.37
0.0818,261.26
0.082,260.4
0.08221,260.89
0.08241,260.6
0.08263,260.42
0.08279,260.03
0.08302,259.87
0.08322,259.96
0.08344,259.81
0.08363,259.85
0.08383,258.83
0.08402,258.8
0.08422,259.19
0.08444,259.05
0.08461,258.41
0.0848,258.27
0.08499,258.88
0.08522,258.22
0.08539,258.78
0.0856,258.1
0.0858,258.2
0.086,257.92
0.0862,256.92
0.08638,257.36
0.08662,257.2
0.08679,256.96
0.087,257.3
0.08721,257.02
0.08742,256.51
0.0876,256.46
0.08781,257.21
0.08803,256.49
0.0882,256.07
0.08842,255.85
0.08859,255.28
0.08881,255.96
0.08902,256.18
0.08918,255.68
0.08942,255.68
0.08958,254.61
0.08978,254.39
0.08996,255.14
0.0902,254.74
0.09037,254.71
0.09059,254.27
0.09078,254.03
0.09097,253.95
0.09119,253.73
0.09138,254
0.09162,253.22
0.09179,252.9
0.09198,252.69
0.09218,253.05
0.09239,252.41
0.09259,252.47
0.09278,252.55
0.09301,251.74
0.09315,251.68
0.0934,251.98
0.09359,251.58
0.0938,251.21
0.09398,251.65
0.09421,251.77
0.0944,250.82
0.09459,250.67
0.09479,250.82
0.095,250.98
0.09521,250.68
0.09539,250.5
0.0956,250.84
0.0958,250.13
0.09599,250.18
0.0962,250.18
0.09641,249.48
0.0966,248.65
0.09677,248.61
0.097,249.44
0.09719,248.69
0.0974,248.54
0.09758,248.41
0.0978,248.73
0.09799,247.99
0.09817,247.9
0.0984,247.82
0.09858,248.02
0.09881,247.35
0.09899,247.4
0.09919,247.25
0.09941,247.04
0.0996,246.74
0.09982,246.75
0.1,246.69
0.10023,246.08
0.10039,246.34
0.10062,246.01
0.10083,246.16
0.101,245.52
0.10119,245.32
0.10139,246.21
0.10161,245.52
0.1018,245.32
0.10201,244.7
0.10221,244.42
0.10243,244.2
0.10261,243.79
0.10282,244.38
0.10303,244.18
0.10321,244.11
0.10342,243.97
0.10361,243.79
0.10381,243.9
0.10399,243.93
0.10421,243.63
0.10442,242.85
0.10459,242.99
0.10484,243.29
0.10502,242.69
0.10523,242.55
0.10542,242.14
0.10563,241.94
0.1058,241.4
0.106,241.18
0.1062,241.51
0.10639,241.56
0.10664,241.22
0.10679,240.56
0.10701,240.63
0.10721,240.93
0.10741,241.11
0.10764,240.81
0.1078,239.79
0.10801,240.06
0.1082,240.4
0.10843,239.24
0.1086,238.92
0.10878,238.57
0.10901,239.1
0.10918,238.21
0.10941,238.7
0.1096,238.62
0.10983,238.3
0.11001,237.86
0.1102,237.18
0.11042,237.23
0.11058,237.07
0.11079,237.55
0.11098,237.1
0.11121,236.88
0.11139,236.46
0.11158,236.33
0.1118,236.68
0.11202,236.58
0.11221,236.06
0.11239,236.83
0.11262,236.27
0.11278,236.09
0.11299,236.24
0.11319,235.78
0.1134,235.57
0.11358,234.87
0.1138,235.36
0.11401,235.33
0.11421,235.79
0.11444,234.74
0.1146,233.82
0.11482,233.83
0.11499,233.78
0.11521,233.47
0.1154,234
0.11561,233.9
0.11582,233.37
0.11596,233.03
0.1162,233.46
0.11639,233.22
0.11661,233.12
0.11681,232.82
0.117,232.36
0.11721,232.9
0.11741,232.14
0.11762,231.49
0.1178,231.56
0.11801,231.78
0.11821,231.59
0.11838,231.61
0.1186,231.62
0.11878,231.52
0.11901,231.49
0.11919,230.54
0.11943,230.12
0.11959,229.72
0.11982,229.92
0.12001,229.72
0.1202,230.06
0.12042,229.68
0.12059,229.14
0.12079,229.17
0.12098,229.2
0.12121,228.86
0.12138,228.45
0.12161,228.25
0.12182,227.65
0.12198,227.6
0.12221,227.4
0.12239,227.86
0.1226,228.14
0.1228,228.41
0.12301,227.45
0.12315,226.86
0.12339,227.7
0.12357,227.08
0.12379,227.81
0.12403,226.95
0.12418,226.72
0.12442,227.14
0.1246,226.58
0.12482,225.87
0.125,225.83
0.1252,226.31
0.12541,225.78
0.12557,225.51
0.12581,225.6
0.12598,225.51
0.12621,225.45
0.1264,224.96
0.1266,224.86
0.12681,224.57
0.12698,224.32
0.12722,224.57
0.12741,224.24
0.12763,224.07
0.12781,224.28
0.12802,223.91
0.12822,224.08
0.12841,224.05
0.12864,223.83
0.12879,223.99
0.12903,223.64
0.12921,223
0.12941,222.39
0.12959,223.07
0.12982,223.17
0.13004,222.71
0.13021,222.18
0.13043,222.22
0.13063,222.15
0.13083,221.3
0.13101,222.03
0.13122,221.67
0.13139,221.78
0.13161,221.41
0.13181,221.78
0.13201,221.13
0.13223,220.81
0.13241,221.44
0.13265,221.06
0.13279,220.81
0.13303,220.81
0.1332,220.55
0.1334,221.05
0.13363,220.6
0.13378,219.57
0.134,219.7
0.13417,219.64
0.13441,219.6
0.1346,218.81
0.13482,219.34
0.13503,218.81
0.13518,218.59
0.13543,219.04
0.1356,218.7
0.13583,218.56
0.13599,218.02
0.13619,217.96
0.13639,217.85
0.13659,218.43
0.1368,217.62
0.13697,217.4
0.1372,217.84
0.13739,217.5
0.13761,216.32
0.13781,216.42
0.138,216.95
0.13822,217.3
0.1384,216.87
0.13862,216.28
0.1388,216.38
0.13901,215.67
0.13917,215.65
0.13937,216.12
0.1396,216.92
0.1398,215.79
0.14001,215
0.1402,215.16
0.1404,215.06
0.14061,215.16
0.14082,215.32
0.14102,215.36
0.14122,214.95
0.14141,214.59
0.1416,214.75
0.14181,213.92
0.14199,213.49
0.14219,213.54
0.14239,214.02
0.14262,214.32
0.14283,213.63
0.14301,214.28
0.14324,213.9
0.1434,213.01
0.14363,213
0.14379,213.25
0.14399,213.08
0.14422,212.83
0.14439,213.15
0.1446,212.93
0.14479,212.9
0.145,212.22
0.14521,212.22
0.14541,212.44
0.14563,212.03
0.14581,211.52
0.146,211.6
0.1462,211.55
0.14641,211.27
0.1466,211.04
0.14681,210.44
0.14698,210.44
0.14716,210.71
0.14741,211
0.14758,210.08
0.14782,209.52
0.14799,209.24
0.14822,209.94
0.14841,209.88
0.1486,209.93
0.14882,209.37
0.14898,209.65
0.14922,209.86
0.1494,208.97
0.14958,208.67
0.14979,209.06
0.14998,208.92
0.1502,208.76
0.15039,208.05
0.15062,208
0.15078,208.2
0.151,207.91
0.15119,208.43
0.15141,208.27
0.15162,207.59
0.15179,207.41
0.152,207.9
0.1522,207.7
0.15239,207.25
0.15259,207.83
0.15277,207.21
0.15301,207.04
0.1532,206.13
0.15338,206.06
0.15359,206.48
0.15383,206.73
0.15402,206.38
0.15423,206.25
0.15443,206.2
0.15461,205.37
0.15481,204.83
0.155,205.32
0.1552,205.61
0.15539,205.8
0.15562,205.52
0.15581,204.81
0.15602,204.49
0.15623,204.35
0.15641,204.67
0.15665,204.4
0.15684,204.18
0.15703,204.1
0.15722,204.46
0.15743,204.59
0.15763,204.34
0.15782,203.66
0.15802,203.3
0.15819,203.58
0.1584,203.05
0.1586,203.7
0.1588,203.42
0.15901,203.07
0.15921,202.14
0.15942,202.39
0.15958,202.29
0.15983,203.04
0.16002,202.45
0.16022,202.24
0.16042,202.34
0.16062,201.61
0.16083,201.82
0.16099,201.79
0.16124,202.51
0.1614,201.77
0.16162,201.95
0.16179,201.43
0.162,201.37
0.16219,200.65
0.16239,201
0.16261,200.93
0.16278,200.84
0.16301,200.55
0.1632,200.32
0.16339,200.04
0.16363,200.36
0.1638,200.12
0.16403,200.03
0.1642,200.2
0.16443,199.88
0.16461,199.95
0.16483,199.81
0.16504,199.59
0.16517,198.81
0.16541,199.39
0.16557,199.19
0.16581,199.26
0.16599,198.78
0.16618,198.88
0.16641,199.11
0.16658,198.52
0.16678,197.99
0.16697,198.29
0.1672,198.25
0.16739,197.97
0.16763,197.7
0.16778,197.64
0.16801,198.13
0.16823,197.67
0.16842,197.57
0.16863,197.05
0.16879,197.22
0.169,196.96
0.16919,196.77
0.16942,196.9
0.16959,196.17
0.16977,196.68
0.16999,197.04
0.17018,196.83
0.17039,196.51
0.17058,196.29
0.17077,196.03
0.17098,196.68
0.17119,196.74
0.17143,196.35
0.17157,195.4
0.17181,195.98
0.17199,195.22
0.1722,194.82
0.17242,195.39
0.17258,195.45
0.17284,195.56
0.17301,194.1
0.1732,194.11
0.1734,194.86
0.17363,194.66
0.17383,194.16
0.174,194.23
0.17422,194.11
0.17441,193.55
0.17462,193.1
0.17478,193.36
0.17501,193.83
0.17522,193.36
0.17541,192.57
0.17561,192.66
0.17578,192.98
0.176,193
0.17619,193.12
0.17641,192.41
0.17659,192.2
0.17679,192.29
0.17701,192.33
0.17718,191.99
0.17741,192.14
0.17758,192.02
0.17781,191.58
0.17799,191.91
0.1782,192.16
0.17843,191.85
0.1786,190.96
0.17882,190.78
0.17901,191.33
0.17921,191.23
0.17942,191.15
0.17962,191.18
0.17984,190.7
0.18,190.77
0.18022,191.48
0.18042,191.33
0.18064,190.79
0.18082,190.58
0.18104,190.29
0.18123,190.02
0.18141,190.35
0.18163,189.67
0.18182,189.59
0.18202,189.27
0.18221,189.82
0.18244,189.67
0.18262,188.83
0.18281,189.06
0.18304,188.9
0.18321,188.39
0.18342,188.05
0.1836,188.55
0.18385,188.63
0.18404,187.74
0.18421,187.87
0.18442,188.37
0.18461,187.88
0.18484,187.69
0.18501,187.46
0.18524,187.69
0.18541,187.25
0.18561,187.7
0.18584,187.25
0.186,186.66
0.18622,186.87
0.18638,187.24
0.18661,189.73
0.18684,189.42
0.18701,188.11
0.18723,187
0.1874,185.55
0.18762,185.44
0.18778,185.68
0.188,185.65
0.18819,185.57
0.18838,185.34
0.1886,185.55
0.18879,185.21
0.18901,185.19
0.18918,184.78
0.18942,184.78
0.1896,184.62
0.1898,184.33
0.19001,184.72
0.19018,184.21
0.19044,184.89
0.19059,184
0.19082,184.38
0.191,184.21
0.19122,184.44
0.19143,184.17
0.1916,183.43
0.19182,183.82
0.192,183.25
0.1922,182.92
0.19238,183.36
0.19259,183.21
0.19279,183.41
0.19298,183.06
0.19317,182.52
0.19338,183.41
0.19359,183.28
0.19379,183.89
0.19401,183.74
0.19419,183.67
0.1944,183.64
0.19461,183.53
0.19479,183.47
0.19501,183.3
0.1952,183.25
0.1954,182.6
0.19557,182.35
0.19578,182.59
0.196,182.27
0.19619,182.36
0.19641,182.15
0.1966,181.67
0.19682,181.56
0.197,181.12
0.19721,181.23
0.19743,181.21
0.19761,181.4
0.19783,181.04
0.19799,180.48
0.19821,180.36
0.1984,180.34
0.19859,180.6
0.19881,180.23
0.19899,179.76
0.19923,179.76
0.19939,179.72
0.19961,179.87
0.19981,179.66
0.2,179.63
0.20023,180.09
0.20041,179.84
0.20063,179.06
0.20081,178.77
0.20104,179.12
0.20123,178.97
0.20143,178.73
0.20162,178.54
0.20181,178.47
0.20202,178.38
0.20221,177.89
0.20242,177.62
0.20261,177.28
0.20279,177.42
0.20301,177.63
0.20319,177.52
0.20342,177.52
0.2036,177.21
0.20383,177.16
0.20403,177.15
0.20424,177.27
0.20445,176.92
0.20462,176.8
0.20483,176.6
0.20502,176.83
0.20523,176.46
0.20541,176.24
0.20561,176.31
0.2058,176.66
0.20599,176.24
0.20622,176.02
0.2064,175.84
0.20662,175.71
0.20682,175.75
0.20702,175.35
0.20724,175.67
0.20741,175.19
0.20761,174.85
0.20781,175.23
0.20801,174.88
0.20821,174.37
0.2084,174.34
0.20859,174.36
0.20878,174.29
0.20899,173.72
0.20919,173.94
0.20938,173.65
0.20959,173.79
0.20978,173.75
0.21,173.85
0.21018,174.13
0.2104,174.15
0.2106,174.24
0.21081,173.52
0.21101,173.58
0.2112,173.08
0.21142,173.11
0.21161,173.03
0.21182,172.91
0.212,172.99
0.21221,172.93
0.21241,172.6
0.21261,172.55
0.2128,172.95
0.213,172.82
0.21321,172.25
0.21339,171.98
0.2136,171.91
0.21378,171.8
0.21399,171.85
0.21421,171.46
0.2144,171.43
0.21459,171.13
0.21477,171.34
0.21503,171.16
0.21519,170.39
0.21543,170.61
0.21561,170.66
0.2158,170.95
0.21603,170.53
0.21621,169.85
0.21643,169.81
0.21661,169.4
0.21681,169.8
0.21701,170.33
0.21721,169.86
0.21742,169.27
0.21761,169.38
0.2178,169.93
0.218,170.36
0.21822,169.76
0.21841,169.1
0.21859,169.05
0.21879,169.17
0.21899,168.74
0.2192,168.78
0.21939,169.03
0.2196,169.01
0.21982,168.24
0.21998,167.78
0.2202,168.07
0.2204,168.35
0.22063,167.68
0.22082,167.42
0.221,167.23
0.22121,167.32
0.22139,167.46
0.22165,167.48
0.2218,166.92
0.22203,167.18
0.2222,167.4
0.22242,167
0.22263,166.7
0.22281,166.5
0.22302,166.99
0.22321,167.16
0.22343,166.59
0.22364,166.21
0.22382,165.9
0.22404,166.19
0.22419,166.34
0.22442,166.27
0.22462,165.58
0.22482,165.44
0.22502,165.99
0.22521,166.27
0.22546,165.94
0.22562,164.95
0.22583,164.59
0.226,164.65
0.22622,164.81
0.22642,165.28
0.22661,164.7
0.22683,164.44
0.22701,164.49
0.22721,164.17
0.2274,165.02
0.22763,164.6
0.22782,164.3
0.22801,163.8
0.22821,164.2
0.22842,164.49
0.22861,164.29
0.22884,164.44
0.22901,163.49
0.22922,163.39
0.22938,163.49
0.22959,163.56
0.22979,163.3
0.23002,163.2
0.2302,163.18
0.23038,163.39
0.23059,163.38
0.2308,163.36
0.23101,162.74
0.23119,162.71
0.23139,162.69
0.2316,163.03
0.23181,163.14
0.23202,162.44
0.23221,162.11
0.23242,161.92
0.23261,162.47
0.23284,162.23
0.23302,161.85
0.23321,160.99
0.23342,161.12
0.23359,161.6
0.23381,161.8
0.23401,161.43
0.23423,161.01
0.2344,160.45
0.23457,160.71
0.2348,161.33
0.235,161.29
0.23519,160.31
0.23539,160.37
0.2356,160.79
0.23578,160.31
0.236,160.35
0.23623,159.75
0.23639,159.79
0.23663,159.99
0.23681,159.99
0.23702,159.51
0.23721,159.28
0.23738,159.87
0.2376,160.26
0.23781,159.46
0.23802,158.58
0.23818,158.06
0.23837,158.36
0.23857,158.67
0.23877,158.97
0.23901,158.67
0.23919,157.85
0.2394,157.85
0.2396,158.14
0.23981,158.53
0.24004,157.72
0.2402,157.64
0.24042,157.98
0.2406,158.27
0.24082,158.11
0.24101,157.03
0.24119,157.13
0.2414,157.45
0.24157,157.48
0.24182,157.09
0.242,156.31
0.2422,156.99
0.24242,156.82
0.24262,156.6
0.24285,156.84
0.24302,156.47
0.24324,156.19
0.24341,156.37
0.24362,156.9
0.24384,156.47
0.24401,155.77
0.24421,155.81
0.24439,155.9
0.24462,155.81
0.24483,155.21
0.24502,155.46
0.24524,155.1
0.24543,154.56
0.24564,154.42
0.24581,155.25
0.24605,155.49
0.24624,155.18
0.24642,154.15
0.24663,153.95
0.24678,154.29
0.24701,154.86
0.24722,154.53
0.24741,154.02
0.24763,153.56
0.24781,153.09
0.24803,153.1
0.2482,153.27
0.24843,153.42
0.24864,152.72
0.24881,152.45
0.24904,152.82
0.24921,151.99
0.2494,152.26
0.24959,152.63
0.24981,152.35
0.25001,152
0.25018,151.96
0.25041,151.99
0.25059,151.52
0.25082,151.4
0.25099,151.92
0.25121,152
0.25142,151.65
0.25161,151.26
0.2518,151.22
0.252,151.97
0.25223,152.11
0.25242,151.46
0.25259,150.51
0.2528,150.74
0.25297,150.55
0.25319,150.99
0.2534,150.87
0.25359,150.34
0.25378,150.39
0.254,150.8
0.25422,150.08
0.25442,149.86
0.25464,149.58
0.2548,149.77
0.25499,149.99
0.25521,149.73
0.25542,149.13
0.25561,148.93
0.25578,149.58
0.25602,149.57
0.2562,149.13
0.25639,148.64
0.25659,149.18
0.25678,149.34
0.25701,149.27
0.2572,148.39
0.2574,147.96
0.25761,148.04
0.25779,148.26
0.25801,148.58
0.25822,148.47
0.25844,147.92
0.25861,147.62
0.2588,147.78
0.259,148.03
0.25922,147.73
0.25944,147.3
0.2596,147.08
0.25979,146.56
0.25999,147.43
0.26021,147.37
0.26041,146.85
0.26062,146.21
0.26085,145.86
0.261,145.79
0.26121,146.19
0.26142,147.05
0.26161,146.54
0.26181,146.19
0.26199,146.17
0.2622,146.21
0.26242,146.2
0.26261,145.13
0.26279,144.96
0.26301,145.5
0.2632,145.62
0.2634,146.07
0.26365,145.61
0.26382,144.83
0.26403,144.69
0.26419,145.04
0.26442,145.99
0.26462,145.05
0.26479,144.66
0.26502,144.26
0.26521,144.01
0.26538,143.45
0.26558,144.33
0.26579,144.86
0.26602,144.57
0.26622,143.65
0.26641,143.2
0.26661,143.78
0.2668,143.41
0.26702,143.77
0.26722,143.96
0.26742,143.09
0.26758,142.46
0.26779,142.86
0.26798,142.99
0.26818,143.23
0.26841,142.47
0.26859,142.57
0.2688,142.47
0.26898,142.76
0.26921,142.57
0.26941,141.83
0.26961,142.25
0.26983,142.28
0.27,142.22
0.27023,141.28
0.2704,141.01
0.27059,141.7
0.27079,141.98
0.27099,142.1
0.27123,141.17
0.27138,140.46
0.27161,140.51
0.27176,140.77
0.272,141.81
0.27223,141.33
0.27242,140.65
0.27263,140.24
0.2728,140.4
0.27303,140.74
0.27321,140.66
0.27343,140.28
0.27363,139.76
0.2738,140.45
0.27402,140.75
0.27419,140.55
0.27442,140.2
0.27462,139.52
0.2748,139.1
0.27503,138.99
0.2752,139.56
0.27543,140.12
0.27564,139.71
0.27583,139.03
0.27604,138.35
0.27621,138.74
0.27644,139.48
0.2766,139.66
0.27681,139.62
0.27705,139.09
0.27721,138.3
0.27741,138.29
0.27757,138.36
0.2778,138.54
0.27802,138.51
0.27823,138.06
0.27842,138.03
0.27862,138.19
0.27882,138.2
0.27903,138.11
0.27924,137.49
0.27941,137.25
0.27959,137.49
0.27982,138.24
0.27999,138.06
0.28021,137.69
0.28041,136.82
0.2806,136.78
0.2808,137.28
0.28099,137.45
0.28123,137.36
0.28142,137.11
0.28161,137.07
0.28183,136.66
0.28202,136.94
0.28225,136.55
0.2824,136.06
0.2826,136.08
0.28279,136.63
0.28298,136.8
0.2832,136.64
0.28339,136.38
0.2836,136.54
0.28378,135.89
0.28402,136.1
0.28422,135.56
0.28441,135.66
0.28462,135.86
0.2848,135.73
0.28503,135.5
0.2852,135.13
0.28541,135.56
0.28561,135.27
0.28579,135.36
0.28601,135.38
0.28621,135.05
0.28639,134.6
0.28659,134.86
0.28676,134.84
0.28701,135.04
0.28718,135.05
0.28742,135.08
0.2876,134.51
0.28781,134.01
0.28801,134.27
0.28821,134.64
0.28842,134.66
0.28861,134.3
0.28884,134.17
0.28902,133.64
0.28921,133.79
0.28943,133.72
0.2896,133.93
0.28982,133.59
0.29,133.18
0.29019,133.41
0.29042,133.77
0.2906,133.77
0.29082,133.31
0.29101,132.92
0.29119,132.6
0.29139,133.26
0.2916,133.44
0.29181,133.29
0.29199,133
0.29222,132.95
0.29239,132.43
0.29261,132.64
0.2928,132.42
0.29302,132.8
0.29323,132.72
0.29342,132.65
0.29363,132.4
0.29384,131.77
0.29403,131.86
0.29421,132.16
0.29441,132.51
0.29464,132.37
0.29481,132.12
0.29504,131.88
0.29523,131.8
0.29541,131.79
0.29564,131.68
0.29581,131.44
0.29602,131.46
0.29621,131.31
0.29642,131.24
0.29662,131.05
0.2968,131.02
0.29702,131.16
0.2972,130.76
0.29743,131
0.2976,130.35
0.29781,130.79
0.29802,130.31
0.29819,130.32
0.29841,130.38
0.2986,130.52
0.29882,130.5
0.29902,130.11
0.29919,130.07
0.29943,129.91
0.2996,130.11
0.2998,129.94
0.30001,130.01
0.30023,130.18
0.30043,130
0.3006,129.59
0.30081,129.38
0.301,129.38
0.30121,129.5
0.30143,129.45
0.3016,129.36
0.30184,129.39
0.30201,128.84
0.30222,128.96
0.30241,128.67
0.30263,129.17
0.30284,129
0.30301,129.05
0.30324,128.68
0.30342,128.4
0.30362,128.44
0.30381,128.31
0.30401,128.44
0.30422,128.39
0.30439,128.2
0.30462,128.57
0.30481,128
0.305,128.06
0.3052,127.69
0.30537,127.47
0.3056,127.71
0.30579,127.65
0.30601,127.86
0.30622,127.51
0.30641,127.71
0.30663,127.51
0.3068,127.45
0.30703,127.43
0.30722,126.85
0.30742,127.2
0.30763,127.27
0.30778,127.18
0.308,127.05
0.30816,126.59
0.30838,126.74
0.30858,126.52
0.30879,126.71
0.309,126.62
0.30919,126.33
0.3094,126.16
0.30961,126.03
0.30981,126.26
0.31002,126.09
0.31019,126.05
0.3104,125.98
0.31058,125.74
0.31079,125.89
0.311,125.76
0.31119,125.8
0.31142,125.51
0.31159,125.49
0.31182,125.35
0.31202,125.4
0.31221,125.15
0.31242,125.07
0.31261,125.11
0.31284,124.97
0.31302,124.47
0.31321,124.44
0.31342,124.57
0.3136,124.81
0.3138,124.63
0.31401,124.37
0.3142,123.97
0.31441,123.97
0.31459,124.25
0.31481,124.69
0.31501,124.55
0.31523,124.12
0.3154,123.51
0.3156,123.65
0.31582,124.25
0.31603,123.96
0.31625,123.53
0.31642,123.24
0.31662,123.17
0.31681,123.25
0.31702,123.71
0.31725,123.53
0.31742,123
0.31764,122.91
0.31782,122.8
0.318,123.27
0.31821,123.27
0.31842,122.91
0.31862,122.31
0.3188,122.32
0.31901,122.27
0.31922,122.36
0.3194,122.51
0.31963,122.81
0.31983,122.7
0.32007,122.26
0.32024,121.54
0.32044,121.59
0.32063,121.6
0.32081,121.78
0.32106,122.5
0.32122,121.39
0.32143,121.19
0.32162,121.08
0.3218,121.25
0.32202,121.37
0.32219,121.9
0.32243,122.01
0.32262,120.99
0.32282,120.75
0.32303,120.26
0.32322,120.79
0.32343,120.86
0.32363,121
0.3238,121.04
0.32401,120.8
0.32419,120.63
0.32441,120.49
0.32457,120.06
0.32479,120.24
0.32498,120.38
0.32519,120.78
0.32542,120.06
0.3256,119.65
0.32579,119.47
0.32599,119.69
0.32621,120.46
0.32642,120.3
0.32662,120.43
0.32684,119.6
0.32701,119.49
0.32721,119.4
0.3274,119.9
0.3276,120.3
0.32783,119.58
0.328,119.27
0.32821,119.22
0.3284,119.2
0.32857,119.14
0.32879,119.73
0.32899,119.91
0.32922,119.41
0.32939,118.77
0.32959,118.43
0.32981,118.36
0.32997,118.83
0.3302,119.13
0.33042,119.1
0.33063,118.29
0.33081,117.76
0.33102,118.28
0.33121,117.8
0.33139,118.22
0.33162,118.81
0.33182,118.79
0.33204,118.08
0.33221,117.23
0.33241,117.44
0.33261,117.44
0.33283,117.87
0.33301,118.44
0.33322,118.59
0.33342,118.32
0.33361,117.26
0.33378,116.94
0.33399,117.02
0.3342,117.33
0.33437,117.71
0.3346,117.42
0.3348,117.16
0.335,116.38
0.3352,116.67
0.33539,116.95
0.33562,117.46
0.3358,117.09
0.33604,116.59
0.33623,116.09
0.33642,115.81
0.33664,116.25
0.33681,116.57
0.33703,116.85
0.33723,116.67
0.33742,115.79
0.33763,115.62
0.3378,115.74
0.33801,116.1
0.33819,116.67
0.33841,116.36
0.33861,115.81
0.33879,115.05
0.33901,115.4
0.33918,115.23
0.33942,115.75
0.33958,116.06
0.33979,116.15
0.34002,115.59
0.34021,115.05
0.34041,114.97
0.34058,115.26
0.3408,115.71
0.34103,115.43
0.34122,114.9
0.34144,114.32
0.34161,114.3
0.34181,114.56
0.34202,115.52
0.34222,115
0.34246,114.4
0.34263,113.56
0.34283,113.4
0.343,114.22
0.3432,114.66
0.34343,115.02
0.34364,114.23
0.34383,113.61
0.34399,113.33
0.3442,113.68
0.34439,114.24
0.34457,114.26
0.34481,114.16
0.345,113.45
0.3452,112.71
0.34538,112.77
0.34558,113.49
0.3458,114.06
0.34599,113.81
0.34622,113.31
0.3464,112.39
0.34658,112.16
0.3468,112.78
0.34696,112.76
0.34724,113.64
0.34741,112.95
0.34761,112.27
0.34781,111.84
0.34797,112.29
0.34819,112.73
0.34841,113.02
0.34864,112.72
0.34883,111.68
0.349,111.49
0.3492,111.75
0.3494,112.6
0.34964,112.69
0.34983,112.23
0.35002,111.51
0.35022,111.5
0.35038,111.58
0.35062,112.35
0.3508,112.13
0.35102,112.02
0.35122,111.33
0.35141,111.07
0.35159,111.49
0.35178,111.87
0.352,112.19
0.35219,111.61
0.35241,111.32
0.35259,110.29
0.35279,110.88
0.353,111.29
0.35318,111.5
0.35339,111.43
0.35361,111.03
0.35379,109.88
0.354,109.93
0.35416,110.31
0.35439,111.09
0.35459,111.05
0.35479,111.24
0.355,110.91
0.3552,110.27
0.35541,109.87
0.35558,109.37
0.35576,110.11
0.35598,110.48
0.3562,110.91
0.35641,110.27
0.35659,109.41
0.35678,109.07
0.35699,109.49
0.35717,110.06
0.3574,110.46
0.35759,109.86
0.35781,109.69
0.35801,109.05
0.3582,108.81
0.35839,109.25
0.35859,109.77
0.3588,109.93
0.359,109.38
0.35921,109.57
0.35942,108.66
0.3596,108.15
0.35978,108.56
0.35998,109.18
0.3602,109.62
0.36043,109.24
0.3606,108.79
0.36081,108.19
0.36101,108.08
0.3612,108.67
0.36141,108.89
0.36159,108.94
0.36181,108.95
0.36206,108.44
0.36221,107.49
0.36242,107.41
0.36258,107.58
0.36279,108.29
0.363,109.17
0.36321,109.14
0.36343,108.52
0.36364,107.86
0.36382,107.18
0.364,107.5
0.3642,108.2
0.36443,108.88
0.36462,108.25
0.36482,107.89
0.36504,107.77
0.36522,107.13
0.36543,107.67
0.3656,107.86
0.36581,107.85
0.36602,107.71
0.36624,107.08
0.36643,106.5
0.3666,106.86
0.36682,107.45
0.367,107.72
0.36724,107.52
0.36743,106.87
0.3676,105.87
0.36781,106.27
0.368,106.89
0.36821,107.28
0.36839,107.01
0.3686,106.99
0.36881,106.68
0.36899,106
0.3692,105.69
0.36938,106.08
0.36958,106.98
0.36982,107.23
0.37,106.72
0.37024,106.42
0.37042,105.68
0.3706,105.25
0.37081,105.75
0.37101,106.35
0.37124,106.92
0.37142,106.35
0.37165,106.36
0.37187,105.39
0.37202,104.32
0.37222,104.83
0.3724,105.7
0.37264,106.49
0.37283,105.99
0.37302,105.74
0.37325,105.18
0.3734,104.4
0.37359,104.64
0.3738,105.49
0.37401,105.45
0.37423,105.49
0.37441,104.77
0.37464,104.61
0.3748,104.86
0.37502,105.49
0.37523,105.53
0.37544,105.27
0.37566,104.44
0.37583,103.87
0.37604,104.47
0.37622,104.84
0.37643,105.13
0.37664,104.58
0.37681,104.54
0.37703,104.62
0.37723,104.45
0.37741,103.8
0.37762,103.84
0.3778,104.06
0.37801,104.53
0.37821,104.63
0.37842,104.94
0.37865,104.4
0.37884,103.65
0.37904,103.68
0.37923,103.8
0.37943,104.64
0.37962,104.55
0.37981,104.23
0.38002,103.41
0.38021,102.96
0.3804,102.77
0.38057,103.23
0.38077,104.04
0.38101,104.33
0.38123,104.62
0.38141,103.88
0.38163,103.71
0.38183,102.66
0.38202,102.35
0.38222,102.7
0.38239,103.23
0.38261,104.08
0.38281,104.28
0.38302,103.47
0.38321,102.68
0.3834,102.27
0.38359,102.68
0.38378,102.88
0.38399,102.98
0.38417,103.06
0.3844,102.89
0.38461,102.68
0.38481,101.96
0.38499,101.96
0.38518,102.46
0.3854,103.01
0.3856,102.88
0.38582,102.71
0.38602,102.57
0.3862,102.63
0.38644,102.54
0.3866,102.58
0.38683,102.38
0.38702,102.03
0.38719,102.78
0.38742,103.06
0.3876,103.06
0.38783,102.49
0.38799,102.3
0.3882,101.81
0.38839,102.14
0.38857,102.5
0.3888,102.94
0.38899,102.62
0.38921,101.79
0.38942,101.67
0.38959,101.43
0.38983,101.72
0.38999,101.67
0.39022,102.06
0.39042,101.78
0.39062,101.21
0.39085,100.9
0.391,100.82
0.39121,101.68
0.39141,101.97
0.39164,101.6
0.39182,101.02
0.39202,100.92
0.39223,100.98
0.39242,101.29
0.39261,101.5
0.39283,100.9
0.39302,100.12
0.39321,100.18
0.39336,100.65
0.3936,101.18
0.39381,101.02
0.39398,100.59
0.3942,100.32
0.39439,100.39
0.3946,100.22
0.3948,100.38
0.395,100.25
0.39523,100.44
0.39539,100.04
0.39561,100.57
0.39582,100.61
0.39602,100.02
0.39625,99.976
0.39641,99.24
0.39662,99.507
0.3968,99.729
0.39702,100.24
0.39724,100.04
0.39742,99.912
0.39765,99.865
0.39781,99.277
0.39803,99.268
0.39824,99.579
0.39842,99.609
0.39864,99.746
0.39881,99.447
0.39904,99.8
0.39922,99.509
0.39944,99.468
0.39964,99.169
0.39981,99.099
0.40002,99.652
0.40024,99.612
0.40043,99.768
0.40066,98.98
0.40083,98.304
0.40102,98.447
0.40121,98.999
0.40143,99.643
0.40165,99.437
0.40184,99.152
0.40204,98.668
0.40221,98.534
0.40243,98.538
0.40262,98.701
0.40282,98.828
0.40304,98.813
0.40323,98.59
0.40342,98.275
0.40365,97.929
0.40382,97.845
0.40402,97.67
0.40422,98.196
0.40444,98.136
0.40465,98.178
0.40483,97.985
0.40503,97.874
0.40519,97.654
0.40543,97.964
0.40563,98.121
0.40581,97.805
0.40602,97.587
0.40622,97.265
0.40641,97.367
0.4066,97.7
0.4068,98.16
0.40703,97.799
0.4072,97.607
0.40739,96.826
0.4076,96.901
0.40781,96.905
0.408,97.021
0.40819,97.868
0.4084,97.884
0.40861,98.003
0.40881,97.457
0.40902,97.324
0.40921,97.132
0.40943,97.284
0.40962,97.256
0.40982,97.207
0.41003,97.216
0.4102,96.749
0.41043,97.169
0.41061,97.195
0.41082,97.162
0.41104,96.968
0.4112,96.468
0.41142,96.373
0.4116,96.571
0.41182,96.728
0.41201,96.886
0.41219,96.46
0.41241,96.796
0.41259,96.608
0.41281,96.56
0.41299,96.504
0.41318,96.361
0.41342,96.507
0.41358,96.031
0.41382,96.292
0.41401,96.087
0.41422,96.204
0.41443,96.189
0.4146,95.827
0.41485,95.797
0.415,95.884
0.41522,95.721
0.41541,95.672
0.41559,95.736
0.41582,96.046
0.41598,95.671
0.4162,96.066
0.41639,95.478
0.4166,95.56
0.4168,95.416
0.41698,95.216
0.41721,95.506
0.41741,95.657
0.41761,95.822
0.41782,95.677
0.418,95.62
0.41823,95.49
0.4184,95.395
0.41861,95.497
0.4188,95.555
0.41899,95.29
0.4192,95.258
0.4194,94.363
0.41961,94.247
0.4198,94.431
0.41999,95.029
0.42023,95.565
0.42043,95.362
0.42066,95.111
0.42083,94.241
0.42103,94.691
0.42122,94.668
0.42139,95.012
0.42163,95.54
0.42182,95.19
0.42204,94.76
0.42224,94.119
0.42243,94.146
0.42265,93.603
0.42283,93.5
0.42301,94.331
0.42326,94.938
0.42344,95.168
0.42365,95.184
0.42384,94.747
0.42402,94.658
0.42422,94.349
0.4244,94.428
0.42463,94.375
0.42482,94.173
0.425,94.192
0.42522,94.32
0.42541,94.66
0.42562,94.609
0.42582,94.4
0.42604,94.316
0.42625,93.994
0.42643,93.901
0.42664,93.809
0.42683,93.866
0.42703,93.948
0.42723,94
0.42743,94.31
0.42762,93.87
0.42782,93.799
0.42801,93.625
0.42823,93.487
0.42842,93.14
0.42861,92.994
0.42877,93.51
0.429,93.969
0.42923,94.516
0.42941,93.77
0.42962,93.548
0.42984,93.333
0.43003,93.089
0.43022,93.016
0.43042,93.444
0.43064,93.093
0.4308,93.205
0.43102,93.177
0.43121,93.331
0.43141,93.018
0.43161,92.913
0.43179,92.988
0.432,92.939
0.4322,93.083
0.4324,92.811
0.43261,92.955
0.4328,92.791
0.43302,92.819
0.43322,93.138
0.43341,92.862
0.43364,92.719
0.43381,92.418
0.43402,92.447
0.43419,92.396
0.43439,92.491
0.4346,92.707
0.4348,92.799
0.435,92.605
0.43518,92.333
0.43539,92.379
0.43559,92.466
0.43579,92.601
0.436,92.405
0.43621,92.116
0.43641,92.351
0.43662,92.506
0.43683,92.93
0.43704,92.303
0.43723,92.399
0.43742,92.341
0.43762,92.431
0.43782,91.871
0.43802,91.51
0.4382,91.619
0.43837,92.046
0.4386,92.217
0.43879,92.392
0.43903,92.107
0.43922,91.448
0.43942,91.613
0.43962,91.939
0.43982,92.19
0.44002,91.943
0.44024,92.077
0.44044,91.512
0.44063,91.211
0.44081,91.406
0.44101,91.483
0.44122,91.902
0.44141,91.462
0.44162,91.552
0.44181,91.098
0.442,91.108
0.44219,91.212
0.44239,91.353
0.4426,91.244
0.44279,91.388
0.44302,91.37
0.44321,91.357
0.44342,90.867
0.44363,90.991
0.4438,90.878
0.44403,90.816
0.44422,90.94
0.44441,90.984
0.44462,91.07
0.44482,91.018
0.44505,91.051
0.44521,90.626
0.4454,90.671
0.4456,90.315
0.44578,90.435
0.44601,90.704
0.4462,90.642
0.4464,90.666
0.44661,90.671
0.44678,90.455
0.44701,90.465
0.44719,90.185
0.44742,90.271
0.44762,90.327
0.44781,90.45
0.44803,90.481
0.44823,90.251
0.44841,90.081
0.44862,90.211
0.44882,90.669
0.44903,90.443
0.44923,90.426
0.4494,89.897
0.44961,89.871
0.4498,89.916
0.45,89.848
0.45019,90.116
0.45038,90.031
0.45058,90.174
0.4508,90.312
0.451,90.135
0.45119,89.977
0.45141,89.896
0.4516,89.684
0.45178,90.042
0.452,90.114
0.45222,90.269
0.45239,89.604
0.45263,89.566
0.45281,89.476
0.453,89.63
0.45322,89.836
0.45341,89.325
0.45362,89.225
0.4538,88.689
0.45401,88.996
0.4542,89.36
0.45438,89.653
0.45464,90.058
0.45483,89.204
0.45503,88.482
0.45518,88.411
0.45538,88.788
0.45561,89.316
0.45577,89.455
0.45601,89.988
0.45622,89.529
0.45641,88.807
0.45661,88.538
0.45678,88.42
0.45699,88.638
0.45717,88.599
0.45737,89.133
0.45759,89.665
0.4578,89.149
0.45803,88.516
0.45817,88.165
0.45839,88.523
0.45858,88.674
0.45878,88.841
0.45901,88.791
0.45917,88.39
0.45939,88.672
0.45958,89.131
0.4598,89.198
0.46003,88.328
0.4602,87.391
0.46037,87.306
0.46058,87.783
0.46078,88.399
0.46099,88.253
0.4612,88.59
0.4614,88.266
0.46159,88.042
0.46178,88.507
0.46198,88.668
0.46222,88.674
0.46242,87.924
0.46261,87.643
0.46281,87.754
0.463,87.899
0.4632,88.188
0.4634,88.2
0.46362,87.917
0.4638,88.041
0.46401,88.041
0.46423,88.168
0.46443,87.405
0.46462,87.378
0.4648,87.691
0.465,88.358
0.46522,88.575
0.46543,87.626
0.46563,87.019
0.4658,86.952
0.46601,87.235
0.4662,87.373
0.46639,87.512
0.4666,87.405
0.46677,87.698
0.46702,87.926
0.46721,87.379
0.4674,86.579
0.4676,86.568
0.46777,86.82
0.46798,87.777
0.4682,88.395
0.46842,87.968
0.46864,87.294
0.46883,86.215
0.46901,86.27
0.46923,86.612
0.46942,87.373
0.46963,87.525
0.4698,87.443
0.47004,87.246
0.47022,86.312
0.47041,85.99
0.47059,86.03
0.47077,86.572
0.471,87.316
0.4712,87.645
0.47143,87.428
0.47162,86.709
0.47182,86.696
0.47204,86.642
0.47225,86.059
0.47241,85.644
0.47263,85.892
0.4728,86.715
0.47301,87.339
0.4732,87.23
0.4734,86.717
0.47361,85.995
0.47382,85.772
0.47402,85.391
0.47422,85.777
0.4744,86.481
0.47463,87.079
0.47483,87.117
0.47504,86.618
0.47524,86.184
0.4754,85.787
0.47564,85.605
0.4758,85.605
0.47598,85.983
0.4762,86.895
0.47638,86.589
0.47661,86.312
0.47681,86.115
0.47701,85.865
0.47722,85.85
0.4774,85.183
0.47761,85.649
0.47779,85.953
0.47803,86.571
0.47822,86.285
0.47839,85.972
0.47864,86.053
0.47884,85.452
0.47902,84.644
0.47922,84.836
0.4794,85.52
0.4796,86.343
0.47977,86.404
0.48001,86.217
0.48021,85.655
0.48039,85.177
0.48059,85.17
0.48076,85.061
0.481,85.331
0.4812,85.3
0.4814,85.527
0.48163,85.032
0.48182,84.792
0.48202,84.444
0.48219,85.102
0.48242,85.957
0.48263,85.972
0.48284,85.684
0.48304,84.902
0.4832,84.63
0.48342,84.382
0.48361,84.508
0.48381,85.087
0.484,85.284
0.4842,85.191
0.48441,85.265
0.48462,84.558
0.48481,84.104
0.485,83.865
0.48519,84.411
0.48539,85.189
0.48561,85.34
0.48582,85.261
0.48603,84.758
0.48623,84.535
0.48642,84.278
0.48662,84.287
0.48683,84.337
0.48705,83.864
0.48724,83.417
0.48741,84.041
0.48764,84.811
0.48782,85.099
0.48804,84.724
0.48825,84.428
0.48841,83.927
0.48864,83.962
0.4888,83.86
0.48901,84.443
0.4892,84.775
0.48941,84.829
0.48963,84.678
0.48979,84.029
0.49002,84.152
0.49022,83.43
0.4904,83.167
0.49059,83.919
0.49078,84.545
0.49102,84.811
0.49122,84.618
0.49142,84.119
0.49163,83.897
0.49183,83.253
0.49203,83.089
0.49221,83.504
0.49242,84.241
0.49265,84.682
0.49283,84.36
0.49306,84.181
0.49323,83.141
0.49345,83.259
0.49367,82.726
0.49384,83.145
0.49403,83.502
0.49424,83.975
0.49443,83.844
0.49465,83.556
0.49485,83.428
0.49503,82.847
0.49522,82.945
0.49543,83.026
0.49563,82.911
0.49582,82.861
0.49602,83.042
0.49623,83.077
0.49642,83.121
0.49663,82.452
0.49683,82.329
0.49699,82.199
0.49722,83.07
0.4974,83.29
0.49761,83.277
0.49781,82.967
0.49802,82.514
0.49822,82.352
0.49841,82.024
0.49861,82.066
0.4988,82.492
0.49901,82.664
0.49921,82.691
0.49942,82.577
0.49965,82.501
0.49982,81.718
0.50001,81.225
0.5002,81.737
0.50039,82.376
0.50061,82.952
0.5008,82.876
0.50104,82.661
0.50123,81.965
0.50141,81.633
0.50162,81.903
0.50178,81.935
0.502,82.349
0.50223,82.594
0.50243,82.206
0.50263,81.939
0.50282,81.792
0.50304,81.866
0.50322,81.758
0.50342,81.68
0.50364,81.407
0.50382,81.359
0.50403,81.554
0.50423,81.901
0.50443,82.081
0.50466,81.922
0.50485,81.642
0.50504,81.449
0.50523,81.14
0.50545,81.293
0.50563,80.974
0.50584,81.756
0.50605,81.635
0.50625,81.215
0.50645,80.75
0.50665,80.675
0.50682,81.336
0.50703,81.87
0.50724,81.879
0.50744,81.469
0.50763,81.163
0.50781,81.299
0.50802,81.334
0.50822,81.203
0.50841,81.282
0.50863,81.054
0.50881,80.905
0.50902,80.775
0.50923,80.97
0.50942,80.835
0.50964,80.869
0.50984,80.928
0.51005,80.575
0.51026,80.186
0.51042,79.767
0.51062,80.205
0.51081,80.739
0.511,81.228
0.51122,81.46
0.51142,81.227
0.51163,80.838
0.51182,80.434
0.51198,80.059
0.5122,80.457
0.51239,80.466
0.51263,80.471
0.51282,80.107
0.51303,79.751
0.51323,79.94
0.51341,80.257
0.51363,80.973
0.51381,80.797
0.51404,80.655
0.51422,79.836
0.51439,79.252
0.5146,79.066
0.51477,78.946
0.51497,79.794
0.51519,80.636
0.51542,81.183
0.51563,80.668
0.51582,80.5
0.51603,80.106
0.51621,79.423
0.5164,79.628
0.51659,80.004
0.51681,80.106
0.51699,79.761
0.51719,79.8
0.51738,80.188
0.5176,80.312
0.51782,80.361
0.51803,79.934
0.51823,79.254
0.51843,78.9
0.51863,78.713
0.51882,79.165
0.519,79.952
0.51923,80.486
0.51943,80.04
0.5196,79.641
0.51982,79.501
0.51999,79.249
0.52022,79.372
0.5204,79.246
0.52061,79.461
0.52083,79.463
0.521,78.957
0.52123,79.222
0.52144,78.794
0.52163,78.765
0.52183,78.988
0.52201,79.076
0.52224,79.34
0.52242,79.028
0.52263,78.856
0.52283,78.376
0.52299,77.94
0.5232,78.444
0.52336,78.894
0.52361,79.534
0.52381,79.178
0.52401,78.719
0.52422,78.552
0.5244,78.342
0.52463,78.723
0.52482,78.611
0.52501,78.888
0.52523,79.131
0.52542,78.836
0.52564,78.772
0.52582,78.369
0.52602,78.68
0.52623,78.331
0.52641,78.242
0.5266,78.211
0.5268,78.503
0.527,78.491
0.52722,78.026
0.5274,77.814
0.52757,78.095
0.52779,78.675
0.52799,78.736
0.5282,78.496
0.52842,78.569
0.52861,78.306
0.52884,78.28
0.52902,78.155
0.52923,77.937
0.52943,78.321
0.52959,78.128
0.52981,78.669
0.53001,78.567
0.53022,78.198
0.53041,77.573
0.53062,77.424
0.53081,77.289
0.53097,77.67
0.53118,78.304
0.5314,78.645
0.53158,78.499
0.5318,78.335
0.53199,77.929
0.5322,77.575
0.53242,77.588
0.53259,77.547
0.5328,77.895
0.533,78.005
0.53321,78.167
0.53343,78.061
0.53362,77.845
0.53383,77.595
0.53399,77.393
0.53422,77.651
0.53441,77.709
0.53463,78.178
0.53481,77.907
0.53503,77.937
0.53521,77.373
0.53541,77.162
0.5356,77.088
0.53579,77.523
0.53599,77.447
0.53619,77.546
0.5364,77.581
0.5366,77.615
0.5368,76.932
0.537,76.998
0.53718,77.074
0.5374,77.21
0.5376,77.398
0.53782,77.359
0.53801,77.454
0.53823,77.451
0.53844,77.713
0.53864,77.368
0.53883,77.032
0.53905,76.902
0.53922,77.026
0.53946,77.282
0.53964,77.367
0.53985,77.152
0.54003,77.206
0.54022,77.105
0.54045,77.079
0.54063,76.693
0.54083,76.528
0.54103,76.852
0.54122,77.019
0.54144,77.051
0.54161,76.78
0.54183,76.929
0.54201,76.716
0.54222,76.918
0.54242,76.857
0.54261,76.858
0.54282,76.79
0.54301,76.724
0.54321,77.097
0.54341,76.911
0.54361,76.858
0.54383,76.784
0.54403,76.588
0.54423,76.582
0.54443,75.983
0.5446,76.186
0.54482,76.77
0.54502,76.863
0.54523,76.988
0.54544,76.55
0.54565,76.395
0.54584,75.94
0.54604,75.966
0.54624,76.102
0.54643,76.213
0.54666,76.633
0.54684,76.326
0.54708,76.778
0.54724,76.34
0.54745,76.249
0.54765,76.15
0.54783,75.955
0.54806,75.876
0.54823,76.066
0.54844,75.962
0.54864,76.145
0.5488,75.843
0.54903,76.296
0.54921,76.069
0.54943,76.001
0.54963,76.124
0.54981,75.845
0.55004,75.762
0.5502,75.439
0.55043,75.936
0.55064,75.878
0.55081,75.573
0.55104,75.595
0.55122,75.558
0.55143,75.721
0.55162,75.798
0.55184,75.927
0.55205,76.072
0.55223,75.767
0.55244,75.927
0.55265,75.411
0.55284,75.433
0.55305,75.741
0.55324,75.639
0.55345,75.6
0.55364,75.48
0.55383,75.562
0.55406,75.441
0.55423,75.531
0.55444,75.432
0.55463,75.228
0.55483,75.322
0.55504,75.284
0.55523,75.433
0.55543,75.361
0.55564,75.366
0.55585,75.405
0.55602,74.983
0.55623,75.248
0.55643,75.252
0.55664,74.952
0.55682,74.992
0.55702,75.192
0.55724,75.347
0.5574,75.07
0.55764,75.507
0.5578,74.994
0.55801,75.373
0.5582,75.607
0.5584,75.831
0.55866,75.615
0.55881,74.859
0.55903,74.654
0.55921,74.58
0.55939,74.928
0.55961,75.124
0.5598,75.238
0.56001,75.197
0.56022,74.959
0.5604,74.989
0.56063,75.118
0.5608,74.62
0.56102,74.856
0.5612,74.715
0.56141,75.162
0.56159,74.938
0.56181,75.072
0.56201,74.823
0.56222,74.322
0.5624,74.138
0.56261,74.282
0.5628,74.374
0.56301,74.879
0.5632,75.299
0.56343,75.578
0.56363,74.582
0.56383,73.825
0.56401,73.813
0.5642,73.88
0.5644,74.314
0.5646,74.426
0.56482,74.857
0.56502,74.674
0.56522,74.478
0.56539,74.824
0.56559,74.938
0.56585,74.89
0.56603,73.843
0.56622,73.365
0.5664,73.536
0.5666,73.858
0.56682,74.241
0.567,74.388
0.56723,74.607
0.56741,74.317
0.56761,74.071
0.56783,73.87
0.568,73.979
0.5682,74.377
0.56839,74.974
0.56862,75.383
0.56884,74.715
0.56903,73.527
0.56921,72.808
0.56939,73.166
0.5696,73.878
0.56981,74.24
0.57001,74.326
0.57022,73.951
0.57041,73.65
0.5706,73.615
0.5708,73.719
0.57098,74.056
0.57123,73.906
0.57142,73.366
0.57158,73.3
0.57179,73.846
0.57202,74.141
0.5722,74.108
0.5724,74.446
0.57259,74.827
0.57284,74.381
0.57302,73.672
0.57322,73.225
0.57342,73.62
0.57359,73.678
0.57382,74.01
0.57403,74.018
0.57423,73.732
0.57444,73.617
0.5746,73.372
0.57482,73.655
0.575,73.736
0.57523,73.962
0.57545,73.481
0.57562,72.925
0.57583,72.647
0.57601,72.999
0.57621,73.221
0.57642,73.795
0.5766,73.982
0.57685,74.188
0.57705,73.448
0.57724,72.864
0.57742,72.585
0.57764,72.814
0.57784,73.256
0.57802,73.228
0.57823,73.64
0.57845,73.617
0.57864,73.429
0.57886,73.129
0.57904,72.932
0.57926,72.935
0.57945,72.778
0.57962,73.171
0.57985,73.993
0.58004,73.973
0.58027,73.329
0.58047,72.265
0.58064,71.934
0.58082,72.547
0.58104,73.166
0.58122,73.369
0.58146,73.032
0.58167,73.008
0.58185,72.611
0.58204,72.67
0.58223,72.753
0.58244,72.711
0.58264,72.785
0.58285,73.025
0.58307,72.96
0.58324,72.783
0.58346,72.629
0.58365,72.528
0.58382,72.582
0.58404,73.186
0.58422,73.484
0.58448,73.145
0.58467,72.135
0.58485,71.444
0.58503,71.789
0.58522,72.221
0.58542,72.81
0.58562,73.279
0.58581,73.792
0.58605,73.791
0.58626,73.099
0.58646,71.957
0.58662,71.406
0.58682,71.818
0.58702,72.34
0.58722,72.729
0.58743,72.842
0.58763,72.916
0.58781,72.548
0.58804,72.519
0.58823,72.191
0.58842,72.203
0.5886,71.954
0.58883,72.466
0.58901,72.118
0.58922,71.965
0.5894,71.947
0.58959,72.106
0.58979,72.801
0.59,72.678
0.59023,72.393
0.59043,71.95
0.59062,71.561
0.5908,71.427
0.591,71.8
0.59122,71.854
0.59141,72.032
0.59162,72.232
0.59183,72.712
0.59203,71.879
0.59226,71.613
0.59241,71.252
0.59265,71.501
0.59283,71.414
0.59302,71.519
0.59323,71.932
0.59342,71.686
0.59364,71.851
0.59383,71.563
0.59402,72.044
0.59423,72.373
0.59444,72.219
0.59466,71.421
0.59482,70.614
0.59501,70.637
0.5952,71.019
0.59539,71.546
0.59558,72.36
0.59579,72.89
0.59602,72.822
0.59624,71.867
0.59641,70.854
0.5966,70.44
0.5968,70.636
0.59699,70.863
0.59717,71.202
0.59738,72.484
0.5976,72.828
0.59784,72.683
0.59803,71.739
0.59823,70.484
0.59841,69.809
0.59859,69.817
0.59881,70.697
0.59899,71.4
0.59921,72.003
0.59941,72.38
0.59961,72.343
0.59985,72.048
0.60004,70.893
0.60025,69.794
0.6004,69.942
0.60059,70.467
0.60079,71.16
0.60095,71.814
0.60119,72.644
0.6014,72.502
0.60162,72.039
0.60183,70.976
0.60197,69.94
0.6022,70.382
0.60239,70.645
0.60258,71.113
0.60279,71.658
0.60297,72.235
0.60321,72.452
0.60343,72.238
0.60364,71.403
0.60382,70.196
0.60402,69.519
0.60421,69.878
0.60441,70.152
0.60461,70.97
0.6048,71.791
0.60503,72.268
0.60522,72.012
0.60544,71.145
0.60565,70.279
0.6058,69.388
0.606,69.924
0.60618,70.42
0.60637,71.155
0.60657,71.733
0.60681,72.02
0.60703,71.389
0.60722,70.456
0.60742,69.748
0.60761,69.544
0.60779,69.703
0.60801,70.254
0.60821,70.651
0.60842,71.023
0.60861,71.51
0.60883,71.257
0.60907,70.463
0.60925,69.384
0.60944,69.635
0.60961,69.873
0.6098,70.713
0.61,71.198
0.61021,71.631
0.61044,71.307
0.61065,70.347
0.61082,69.448
0.61102,69.24
0.61118,69.424
0.61139,69.912
0.61159,70.397
0.6118,70.642
0.612,71.008
0.61221,71.151
0.61241,70.97
0.61264,70.203
0.61282,69.631
0.61303,69.579
0.61324,69.995
0.61342,70.118
0.61359,70.266
0.6138,70.926
0.61402,71.235
0.61425,70.874
0.61443,69.9
0.61465,69.503
0.61481,68.93
0.61502,69.56
0.61522,69.968
0.6154,70.286
0.6156,70.317
0.6158,70.651
0.616,70.74
0.61623,70.693
0.6164,69.795
0.61662,69.402
0.6168,69.292
0.61699,69.699
0.61719,70.219
0.61737,70.692
0.6176,71.432
0.61783,71.302
0.61803,70.826
0.61825,69.886
0.61843,68.966
0.61862,68.693
0.61882,69.06
0.61902,69.746
0.6192,70.601
0.61943,70.985
0.61964,70.839
0.61986,69.956
0.62004,68.943
0.62021,68.527
0.62041,68.882
0.6206,69.545
0.62079,70.084
0.62101,70.78
0.62121,70.667
0.62144,70.471
0.62165,69.366
0.62183,68.583
0.62201,68.322
0.62219,68.693
0.6224,69.235
0.62259,69.744
0.6228,70.346
0.62301,70.538
0.62322,70.231
0.62345,69.204
0.6236,67.912
0.62379,68.037
0.62398,68.489
0.62417,69.126
0.62438,69.986
0.62459,70.32
0.62481,70.582
0.62501,70.321
0.62523,69.907
0.62542,69.138
0.62561,68.48
0.62583,68.102
0.626,67.905
0.62619,68.85
0.6264,69.6
0.62663,70.193
0.62683,70.002
0.62702,69.787
0.62723,69.4
0.62745,68.904
0.62764,68.218
0.6278,67.997
0.62801,67.901
0.62821,68.694
0.62839,69.135
0.62859,69.862
0.6288,70.058
0.62902,69.857
0.62922,69.268
0.62941,68.693
0.62964,68.167
0.62979,67.482
0.62999,67.992
0.63016,68.799
0.63036,69.597
0.6306,69.766
0.63079,69.472
0.63102,69.194
0.6312,68.602
0.63141,67.918
0.63162,67.517
0.6318,67.521
0.632,68.152
0.63219,69.399
0.63242,70.178
0.63264,70.263
0.63284,69.606
0.63305,68.981
0.63325,67.776
0.63341,67.399
0.63363,67.475
0.63381,67.865
0.63399,68.547
0.63419,69.324
0.63439,69.837
0.63463,69.417
0.63483,68.889
0.63503,68.353
0.63522,68.207
0.63542,68.301
0.63562,67.975
0.63584,67.799
0.63601,67.831
0.63622,68.688
0.63644,69.216
0.63666,69.106
0.63686,68.807
0.63704,68.276
0.63727,67.865
0.63741,67.471
0.63764,67.82
0.63782,67.856
0.638,68.55
0.63822,69.047
0.63842,69.19
0.63863,68.749
0.63884,68.276
0.63904,67.447
0.63925,67.213
0.63943,67.137
0.63962,67.929
0.63984,68.921
0.64006,69.188
0.64024,69.143
0.64045,68.719
0.64066,68.243
0.64083,67.662
0.641,67.949
0.64121,68.261
0.64142,68.383
0.64163,67.685
0.64182,67.037
0.64202,67.237
0.64221,67.705
0.64241,68.224
0.64262,68.669
0.64283,68.817
0.64307,68.482
0.64326,67.805
0.64345,67.41
0.64361,67.201
0.6438,67.424
0.64401,67.93
0.6442,68.051
0.64439,68.263
0.6446,68.344
0.6448,68.158
0.64505,67.636
0.64523,66.721
0.64543,66.555
0.64561,66.467
0.64582,67.249
0.64601,67.902
0.64619,68.592
0.6464,68.556
0.64662,68.41
0.64681,67.845
0.647,67.356
0.64718,67.359
0.64739,67.548
0.64758,67.597
0.64784,67.686
0.64802,66.937
0.64822,66.994
0.6484,67.336
0.6486,67.709
0.64881,68.242
0.64901,68.254
0.64921,68.293
0.64941,67.811
0.64963,67.019
0.64978,66.458
0.64997,67.096
0.65018,67.753
0.65039,68.01
0.65062,68.035
0.65082,67.682
0.65103,67.413
0.65124,66.994
0.65142,66.561
0.65164,66.793
0.65179,67.191
0.65199,67.72
0.65221,68.042
0.6524,67.603
0.65262,67.254
0.65282,66.461
0.653,66.454
0.65321,66.626
0.65339,67.431
0.65362,68.094
0.65384,68.181
0.65405,67.648
0.65425,66.96
0.65443,66.971
0.65461,66.766
0.65482,66.584
0.65502,66.387
0.65518,66.595
0.65539,67.314
0.6556,67.662
0.65582,67.858
0.656,67.56
0.65623,67.154
0.65642,66.902
0.65663,66.684
0.65683,66.451
0.65703,66.91
0.65721,67.084
0.65743,67.373
0.65762,67.126
0.65783,67.077
0.65804,66.511
0.65821,66.011
0.65842,65.949
0.65857,66.161
0.65876,66.949
0.659,67.732
0.6592,68.072
0.65943,67.701
0.65961,66.953
0.65981,66.473
0.66003,66.302
0.66023,65.994
0.66043,65.844
0.66059,66.281
0.66081,67.125
0.66101,67.252
0.66123,67.603
0.66144,67.105
0.66162,66.729
0.66182,66.189
0.66201,66.115
0.66221,66.261
0.66239,66.526
0.66261,66.747
0.6628,66.776
0.66302,66.473
0.66322,66.138
0.66339,65.779
0.66361,66.144
0.66376,66.188
0.66398,66.908
0.66419,67.336
0.6644,67.349
0.6646,67.216
0.66481,66.662
0.66502,66.387
0.66521,65.916
0.66543,65.899
0.66562,65.735
0.66578,66.061
0.66603,66.731
0.66623,66.729
0.66644,66.822
0.66664,66.681
0.66683,66.466
0.66704,66.159
0.66723,65.939
0.66744,65.957
0.66763,65.617
0.66782,65.779
0.66799,66.315
0.66822,66.633
0.66841,66.723
0.66863,66.65
0.66883,66.414
0.66902,65.805
0.66922,65.253
0.6694,65.053
0.6696,65.736
0.66979,66.337
0.66999,66.585
0.6702,66.676
0.67043,66.656
0.67061,66.017
0.67082,65.661
0.67101,65.312
0.67121,65.143
0.67138,64.875
0.67157,65.615
0.67178,66.379
0.67198,66.636
0.6722,66.634
0.67243,66.14
0.67262,65.598
0.67281,65.284
0.673,65.09
0.6732,64.853
0.6734,64.92
0.6736,65.622
0.67381,65.926
0.67399,66.061
0.6742,66.016
0.6744,65.589
0.67464,65.476
0.67483,64.915
0.67502,64.571
0.67519,64.516
0.67541,65.101
0.67561,65.772
0.6758,66.021
0.67604,66.37
0.67621,65.721
0.67644,65.394
0.67662,65.041
0.67683,64.936
0.67705,64.901
0.6772,64.662
0.67744,65.56
0.67764,65.802
0.67783,65.761
0.67805,65.668
0.67823,65.181
0.67844,65.284
0.67863,65.191
0.67882,65.266
0.67905,65.484
0.67927,65.193
0.67943,64.544
0.67964,64.578
0.67981,64.971
0.68004,65.588
0.68022,65.838
0.68044,66.148
0.68064,65.63
0.68085,65.307
0.68104,64.885
0.68126,64.795
0.68142,64.527
0.68162,65.054
0.68183,65.527
0.68202,65.669
0.68223,65.773
0.68244,65.697
0.68264,65.232
0.68285,64.943
0.68304,64.449
0.68323,64.221
0.68341,64.454
0.68362,65.034
0.68383,65.502
0.68402,65.578
0.68425,65.766
0.68445,65.201
0.68464,64.836
0.68483,64.55
0.68503,64.56
0.68522,64.685
0.68541,64.796
0.68563,65.211
0.68582,64.943
0.68604,64.725
0.68624,64.37
0.68643,64.549
0.68662,64.657
0.68684,64.818
0.68704,64.891
0.68723,64.919
0.68744,64.758
0.68764,64.913
0.68784,64.667
0.68803,64.406
0.68824,64.414
0.68844,64.119
0.68865,64.017
0.68881,64.081
0.68901,64.644
0.68924,65.099
0.68945,65.324
0.68965,65.125
0.68983,64.775
0.69006,64.357
0.69023,64.1
0.69045,64.055
0.69065,63.904
0.69082,63.772
0.69103,64.253
0.69123,64.319
0.69145,64.546
0.69164,64.591
0.69184,64.465
0.69204,64.467
0.69222,64.107
0.69243,64.418
0.69264,64.548
0.69285,64.947
0.69303,64.676
0.69324,64.536
0.69345,64.18
0.69364,63.971
0.69383,63.987
0.69402,64.212
0.69424,64.54
0.69442,64.565
0.69465,64.642
0.69483,64.63
0.69504,64.656
0.69522,64.611
0.69546,64.299
0.69566,63.765
0.69583,63.812
0.69601,63.816
0.69623,64.277
0.69643,64.241
0.69663,64.46
0.69684,64.385
0.69702,64.354
0.69722,64.431
0.69741,64.204
0.69762,63.917
0.69781,63.587
0.69801,63.742
0.69818,63.654
0.69837,63.947
0.6986,64.438
0.6988,64.511
0.69899,64.533
0.6992,64.513
0.6994,64.212
0.69959,63.917
0.69979,63.606
0.7,63.677
0.70021,63.505
0.7004,63.625
0.70061,63.863
0.7008,64.047
0.70101,64.117
0.7012,64.136
0.70143,64.344
0.70162,64.011
0.70184,63.964
0.70204,63.552
0.70222,63.543
0.70242,63.597
0.70262,63.798
0.70281,63.664
0.70301,63.698
0.7032,63.627
0.7034,63.765
0.7036,63.806
0.7038,64.012
0.70399,63.933
0.70421,63.904
0.7044,63.673
0.70462,63.612
0.70479,63.545
0.705,63.549
0.70521,63.718
0.70542,63.863
0.70563,63.805
0.70582,63.8
0.70602,63.85
0.70622,63.707
0.70644,63.921
0.70664,63.688
0.70682,63.681
0.70702,63.777
0.70721,63.752
0.70742,63.877
0.70762,63.801
0.70781,63.806
0.708,63.926
0.70821,64.016
0.70839,63.765
0.70861,64.258
0.70881,64.239
0.70904,63.967
0.70925,63.4
0.70943,62.992
0.70964,62.942
0.70983,63.169
0.71002,63.516
0.71022,63.789
0.7104,64.224
0.71062,64.66
0.71082,64.466
0.71104,63.702
0.71122,62.993
0.71141,62.514
0.71159,62.358
0.71178,62.534
0.712,63.378
0.71219,63.719
0.71241,64.407
0.71262,64.243
0.71284,63.951
0.71308,63.086
0.71323,62.095
0.71342,62.128
0.7136,62.285
0.71382,63.026
0.71401,63.34
0.7142,64.413
0.71442,64.875
0.71461,64.597
0.71483,63.806
0.71504,62.627
0.71522,61.638
0.71541,61.4
0.71558,61.429
0.71579,62.248
0.716,62.79
0.7162,63.273
0.71641,63.546
0.7166,63.695
0.71683,64.051
0.71705,63.587
0.71724,62.811
0.71743,62.198
0.71763,62.115
0.71782,62.203
0.71799,62.586
0.71823,63.164
0.71841,63.299
0.71863,63.283
0.7188,63.452
0.71902,62.981
0.71921,62.488
0.71938,62.246
0.7196,62.357
0.71978,62.159
0.71997,62.419
0.72018,62.97
0.72035,63.217
0.72059,63.987
0.72081,63.745
0.72104,63.221
0.72124,62.047
0.72141,61.111
0.72159,61.305
0.72178,61.91
0.72199,62.479
0.72221,63.213
0.72241,63.268
0.72261,63.642
0.72279,63.568
0.72304,63.54
0.72326,62.734
0.72342,61.804
0.72362,61.384
0.72382,61.356
0.72401,61.879
0.7242,62.27
0.72441,62.915
0.7246,63.232
0.7248,63.64
0.725,63.532
0.72523,62.841
0.72544,61.842
0.72562,61.185
0.7258,61.349
0.72599,61.653
0.72618,61.997
0.72641,62.573
0.7266,62.724
0.72682,62.836
0.72699,62.998
0.72721,63.031
0.72742,62.353
0.72763,61.568
0.7278,61.537
0.728,61.575
0.72819,61.827
0.72839,61.908
0.7286,62.065
0.72881,62.292
0.729,62.38
0.72922,62.607
0.7294,62.589
0.7296,62.696
0.72981,62.952
0.73001,63.039
0.73025,63.135
0.73044,62.207
0.73067,61.638
0.73081,61.452
0.73101,61.577
0.73122,61.995
0.73143,62.078
0.73163,62.2
0.73182,62.205
0.73202,62.353
0.73223,62.356
0.73241,62.438
0.73261,62.834
0.73282,62.471
0.73303,62.054
0.73321,61.577
0.73341,61.556
0.7336,61.634
0.73377,61.767
0.73399,62.338
0.73418,62.687
0.73438,63.053
0.73461,63.291
0.73482,62.604
0.73504,61.708
0.73521,60.996
0.73541,61.019
0.73561,61.257
0.73581,61.554
0.73602,62.188
0.73622,62.463
0.73644,62.876
0.73663,62.724
0.73686,62.324
0.73704,61.395
0.73722,60.94
0.73739,61.236
0.7376,61.721
0.73778,61.829
0.738,62.551
0.7382,62.677
0.73841,62.742
0.73864,62.309
0.73885,61.499
0.73905,60.822
0.73921,60.921
0.73943,61.562
0.7396,61.954
0.73982,62.605
0.74003,62.541
0.74024,62.376
0.74044,61.546
0.7406,61.039
0.7408,61.132
0.741,61.447
0.74119,61.71
0.74141,62.128
0.74162,62.364
0.74184,62.082
0.74204,61.716
0.74223,61.42
0.74243,61.388
0.74262,61.447
0.74282,61.497
0.74301,61.653
0.7432,62.148
0.7434,62.297
0.74362,62.246
0.74384,61.492
0.74403,60.6
0.74421,60.318
0.74441,60.57
0.74462,61.279
0.74482,61.54
0.74501,61.98
0.7452,62.664
0.74542,63.127
0.74564,62.832
0.74584,61.898
0.74604,60.532
0.74621,59.773
0.74638,59.849
0.74655,60.529
0.74679,61.373
0.74699,62.335
0.74722,62.767
0.74743,62.643
0.74764,61.972
0.74785,60.817
0.74803,60.134
0.7482,60.06
0.74841,60.463
0.74857,60.703
0.74877,61.229
0.74896,61.987
0.74919,62.419
0.7494,62.337
0.7496,61.831
0.74985,61.162
0.75003,60.263
0.75022,59.602
0.75042,60.039
0.75061,60.64
0.75081,61.362
0.751,62.148
0.75121,62.918
0.75143,62.6
0.75163,61.811
0.75186,60.786
0.75205,59.499
0.75221,59.188
0.75243,59.723
0.75262,60.453
0.75284,61.199
0.75303,61.926
0.75324,62.432
0.75345,62.383
0.75367,62.047
0.75388,61.246
0.75405,60.016
0.75425,59.628
0.75441,59.6
0.75462,60.05
0.75481,60.331
0.75503,60.858
0.75526,61.243
0.75546,61.262
0.75565,61.133
0.75587,60.514
0.75604,60.342
0.75624,60.59
0.75642,61.258
0.75662,61.69
0.75682,61.642
0.75704,61.563
0.75724,60.525
0.75742,59.661
0.75763,59.715
0.7578,59.905
0.75803,60.365
0.75823,60.779
0.75843,61.185
0.75864,61.787
0.75883,61.874
0.75905,62.054
0.75927,61.262
0.75947,60.056
0.75963,59.071
0.7598,59.301
0.76,60
0.76019,60.314
0.76042,60.792
0.76061,60.932
0.76081,61.073
0.761,61.327
0.76122,61.455
0.76147,60.935
0.76164,59.979
0.76182,59.683
0.76201,59.981
0.76219,60.135
0.76241,60.877
0.7626,60.822
0.7628,61.092
0.76298,61.172
0.76319,61.466
0.76343,60.738
0.76362,59.781
0.7638,59.324
0.76399,59.598
0.76421,60.208
0.7644,60.668
0.7646,61.229
0.76483,61.501
0.76503,61.351
0.76524,61.078
0.76543,60.233
0.76562,59.519
0.76579,59.604
0.76599,59.953
0.76618,60.374
0.76638,60.644
0.76659,61.156
0.76681,61.436
0.76703,61.314
0.76727,60.727
0.76743,59.82
0.76765,59.711
0.7678,59.399
0.76802,59.857
0.7682,60.002
0.76839,60.297
0.76859,60.377
0.7688,60.678
0.769,60.58
0.76921,60.547
0.76942,60.149
0.76964,60.453
0.76984,60.435
0.77003,60.421
0.77024,60.17
0.77041,59.834
0.77065,59.984
0.77081,59.747
0.77101,60.108
0.77119,60.115
0.77141,60.649
0.77158,60.792
0.77179,61.236
0.77201,61.457
0.77224,60.833
0.77244,59.724
0.77264,58.922
0.77282,58.818
0.77303,59.192
0.77322,59.891
0.7734,60.573
0.77361,61.049
0.77383,61.434
0.77405,61.076
0.77427,60.208
0.77444,59.269
0.77463,58.626
0.77481,59.061
0.77499,59.463
0.77518,59.978
0.77538,60.418
0.7756,60.985
0.77579,61.121
0.77601,60.844
0.77625,60.083
0.77644,58.943
0.7766,58.634
0.77682,59.129
0.77702,59.606
0.77722,59.857
0.77742,59.984
0.7776,60.348
0.77782,60.782
0.778,60.525
0.77824,60.405
0.77842,59.257
0.77859,59.063
0.77878,59.321
0.779,59.44
0.77918,59.437
0.77939,59.574
0.7796,59.898
0.77981,59.698
0.78001,59.826
0.78024,60.121
0.78044,59.997
0.78064,59.727
0.78082,59.765
0.78102,59.708
0.78123,59.733
0.78143,59.58
0.78161,59.647
0.78179,59.652
0.78201,60.419
0.7822,60.602
0.78242,60.713
0.78267,60.147
0.78287,59.191
0.78305,58.5
0.78323,58.343
0.78344,58.964
0.78362,59.349
0.78384,59.941
0.78403,60.386
0.78422,60.918
0.78443,61.069
0.78465,60.662
0.78486,59.91
0.78505,58.988
0.78525,58.362
0.78545,58.474
0.78564,58.671
0.78584,59.24
0.78603,59.685
0.78623,60.377
0.78645,60.68
0.78666,60.365
0.78685,59.834
0.78707,58.907
0.78724,58.083
0.78743,57.833
0.7876,57.943
0.78782,58.748
0.78799,59.609
0.7882,60.628
0.78842,61.004
0.78865,60.742
0.78889,60.292
0.78907,59.311
0.78928,58.425
0.78943,57.723
0.7896,57.759
0.78979,58.191
0.78999,58.756
0.7902,59.651
0.7904,60.152
0.79062,60.627
0.79084,60.35
0.79104,59.935
0.79125,59.265
0.79143,58.881
0.79165,58.569
0.79183,57.983
0.79201,58.01
0.79219,58.4
0.79237,58.993
0.79256,59.66
0.79277,60.181
0.79301,60.551
0.7932,60.27
0.79343,59.866
0.79361,59.285
0.79383,58.796
0.79402,58.591
0.79422,58.081
0.79443,58.293
0.7946,58.562
0.79477,59.298
0.79499,59.913
0.79521,60.199
0.79541,59.995
0.79562,59.465
0.7958,59.058
0.79602,58.556
0.79622,58.063
0.79641,57.793
0.79662,58.141
0.79681,58.514
0.79699,59.089
0.79721,59.55
0.79742,59.961
0.79761,59.546
0.79783,59.3
0.79801,58.632
0.79822,58.505
0.79842,58.035
0.7986,57.945
0.7988,58.142
0.79899,58.559
0.79921,59.523
0.79939,59.955
0.79962,60.397
0.79985,60
0.80005,59.305
0.80025,58.566
0.80044,57.872
0.8006,57.895
0.80081,58.252