strain,stress
0.00106,47.026
0.00117,50.601
0.00129,55.509
0.00138,57.075
0.00151,57.942
0.00156,61.942
0.00161,67.385
0.00178,68.424
0.00207,72.171
0.00236,78.008
0.00258,82.035
0.00264,82.755
0.00262,83.543
0.0026,88.216
0.00262,94.282
0.00266,96.924
0.00277,98.201
0.00291,103
0.00304,109.58
0.00312,112.16
0.00322,113.35
0.00338,118.33
0.00352,125.3
0.00363,128.24
0.00372,129.51
0.00385,134.21
0.00397,141.64
0.00414,147.57
0.00441,145.63
0.00465,148.99
0.00484,158
0.00499,162.67
0.00499,164.91
0.00506,169.95
0.00515,177.63
0.00529,181.82
0.00545,183.76
0.00561,189.33
0.00579,197.37
0.00595,201.57
0.00612,203.28
0.00628,208.84
0.00644,217.09
0.00654,221.49
0.00665,223.37
0.00677,229.12
0.00697,237.74
0.00732,239.89
0.00774,245.63
0.00805,253.69
0.0082,260.58
0.00818,263.92
0.00813,266.05
0.00807,271.92
0.00811,280.7
0.00824,286.3
0.0084,288.95
0.00858,294.91
0.00873,303.25
0.00888,308.62
0.00907,311.56
0.00928,317.77
0.00944,326.36
0.00959,332.1
0.00974,335.18
0.00993,340.89
0.01013,349.37
0.01039,357.75
0.01067,357.74
0.01093,361.53
0.01109,371.41
0.01116,379
0.01121,382.51
0.01132,388.99
0.01148,397.36
0.01168,403.08
0.01186,406.28
0.01202,412.52
0.01223,421.22
0.01242,427.05
0.01266,430.32
0.01285,436.46
0.01304,444.75
0.01326,451.04
0.01344,454.7
0.01369,460.31
0.01395,469.1
0.0143,472.39
0.01474,478.62
0.01515,486.3
0.0154,493.28
0.01553,497.87
0.01562,500.72
0.01571,505.58
0.01583,513.59
0.01601,519.42
0.01627,521.79
0.01656,525.9
0.01687,533.52
0.01715,539.49
0.01745,541.96
0.01779,546.46
0.0181,553.56
0.01842,559.14
0.01878,561.63
0.01919,564.95
0.01958,571.64
0.01999,579.01
0.0205,579.63
0.02106,580.29
0.02157,587.13
0.02196,593.47
0.02232,595.61
0.02271,598.82
0.0231,604.74
0.02358,609.03
0.0241,610.51
0.02464,613.36
0.02518,619.23
0.02574,623.03
0.02632,623.87
0.02692,626.12
0.02754,630.77
0.02816,634.32
0.02883,635.5
0.02949,637.54
0.03014,642.1
0.0308,643.5
0.03153,644.86
0.03234,649.3
0.03319,652.5
0.03385,654.29
0.03439,654.51
0.03493,655.36
0.03551,658.63
0.03615,661.43
0.03688,661.5
0.03756,662.1
0.03831,665.23
0.03903,667.71
0.03979,667.52
0.04056,667.8
0.04131,670.96
0.04208,673.25
0.04286,672.55
0.04368,672.6
0.04445,674.94
0.04524,676.63
0.046,675.78
0.0468,675.72
0.04758,677.79
0.04834,679.53
0.04911,678.88
0.04985,678.46
0.05058,680.52
0.05136,682.3
0.05213,680.96
0.0529,680.23
0.05369,682.3
0.05445,683.96
0.05521,682.26
0.05599,680.94
0.05679,682.94
0.05756,684.25
0.05834,682.72
0.05911,681.6
0.05986,683.16
0.06058,684.8
0.0613,683.53
0.06207,682.21
0.06287,683.94
0.06356,685.25
0.06432,683.29
0.06503,681.96
0.06578,683.8
0.06645,685
0.06711,683.31
0.06784,681.83
0.06854,683.15
0.06926,685.01
0.06997,683.49
0.07071,681.56
0.07145,682.96
0.07213,684.44
0.07281,682.82
0.07353,680.88
0.07428,682.4
0.075,683.63
0.07568,682.19
0.07636,680.56
0.07711,681.64
0.07778,683.27
0.07841,681.18
0.07906,679.53
0.07973,680.79
0.0804,682.07
0.08102,680.93
0.08171,679.29
0.0824,680.76
0.08309,682.09
0.08373,680.61
0.08442,678.68
0.08511,680.04
0.08578,681.32
0.08642,680.17
0.08708,678.28
0.08775,679.73
0.08848,681.48
0.08911,679.62
0.0898,677.93
0.09043,679.41
0.09106,681.15
0.09174,679.64
0.09238,677.61
0.09301,678.97
0.09366,680.71
0.09424,679.52
0.09484,677.61
0.09543,678.83
0.09608,680.49
0.0967,679.19
0.09732,677.41
0.09796,678.78
0.09861,680.78
0.09926,679.46
0.09994,677.42
0.10061,678.31
0.10125,680.05
0.10191,678.9
0.10253,677.02
0.10314,677.97
0.1038,679.45
0.1044,678.2
0.10507,676.62
0.10567,677.26
0.10629,679.2
0.10692,678.16
0.10755,676.35
0.10818,677.09
0.10877,678.97
0.10937,677.77
0.10996,675.5
0.11051,675.96
0.11115,677.68
0.11175,676.92
0.11234,674.91
0.11301,675.37
0.11363,677.31
0.11424,676.53
0.11485,674.56
0.11549,675.35
0.11613,677
0.11667,675.87
0.11725,673.59
0.11787,674.48
0.11848,675.93
0.11903,674.97
0.11964,672.91
0.12023,673.08
0.12082,674.73
0.12142,674.05
0.12197,671.97
0.12251,672.59
0.12308,674.6
0.12367,673.61
0.12431,671.39
0.12496,671.85
0.12555,673.52
0.12614,672.66
0.12671,670.37
0.12733,670.7
0.12791,672.32
0.12849,671.7
0.12908,669.46
0.12967,669.84
0.13028,671.4
0.13087,671.05
0.13149,668.73
0.13205,668.76
0.13261,670.75
0.13316,670.33
0.13369,667.82
0.13431,667.63
0.13488,669.54
0.13545,669.04
0.13606,666.9
0.13665,666.78
0.13723,668.48
0.13777,668.27
0.13835,665.77
0.13895,665.93
0.13958,667.62
0.14017,667.28
0.14073,665.26
0.14132,665.02
0.14188,666.48
0.14241,666.17
0.14298,664.17
0.14355,663.91
0.14413,665.55
0.14471,664.91
0.14527,663.18
0.14578,663.18
0.14639,664.57
0.14699,664.43
0.14754,662.32
0.14812,661.76
0.14864,663.55
0.1492,663.25
0.14979,661.02
0.15038,660.37
0.15094,661.82
0.15151,662.08
0.15216,659.67
0.1527,659.15
0.15327,660.73
0.15381,660.73
0.15439,658.54
0.15496,658.27
0.15547,660.14
0.15601,659.86
0.15659,657.37
0.15714,657.04
0.15765,658.45
0.15816,658.3
0.15865,656.51
0.1592,655.98
0.15972,657.45
0.16028,657.81
0.16084,655.69
0.16139,655.18
0.16202,656.82
0.16253,656.64
0.16314,654.41
0.16371,653.88
0.16426,655.33
0.16482,655.29
0.16541,653.08
0.16598,652.5
0.16648,654.07
0.16699,654.27
0.16757,652.23
0.16812,651.55
0.16862,653.04
0.16916,653.23
0.16966,651.11
0.17021,650.45
0.17073,651.92
0.17128,651.86
0.17184,649.69
0.17238,648.93
0.1729,650.39
0.17347,650.58
0.17399,648.52
0.17461,647.46
0.17517,648.81
0.17573,649.37
0.17631,647.47
0.17684,646.72
0.17739,647.99
0.17791,648.16
0.17844,645.85
0.17902,644.75
0.17955,646.2
0.18004,646.78
0.18053,644.73
0.1811,643.88
0.18166,645.04
0.1822,645.3
0.18274,643.51
0.1833,642.39
0.18386,643.66
0.18437,644.35
0.18495,642.38
0.18551,641.03
0.18607,642.16
0.18664,642.8
0.18715,640.83
0.18771,639.26
0.1883,640.48
0.18882,641.4
0.18938,639.37
0.18991,638.11
0.19043,639.41
0.19096,640.15
0.19143,638.24
0.192,637.13
0.19252,638.26
0.19304,639.02
0.19356,636.99
0.19406,635.37
0.19463,636.47
0.19523,636.94
0.19578,635.12
0.19634,633.86
0.19689,634.87
0.19745,635.53
0.19797,633.91
0.19854,632.54
0.1991,633.67
0.19965,634.34
0.2002,632.05
0.20072,630.55
0.20124,632.02
0.20175,632.69
0.20227,631.03
0.20278,629.49
0.20331,630.76
0.20377,631.55
0.20426,629.67
0.20484,628.31
0.20538,629.35
0.20594,630.39
0.20647,628.65
0.20703,626.97
0.20756,627.8
0.20808,628.57
0.20866,626.94
0.20922,625.14
0.20981,625.7
0.21035,626.86
0.21085,625.64
0.21138,624.06
0.21188,624.89
0.21245,625.57
0.21298,623.99
0.21351,622.55
0.21404,623.19
0.21454,623.88
0.21503,622.19
0.21554,620.52
0.21609,621.39
0.21664,622.3
0.21713,620.75
0.21766,619.06
0.21822,619.83
0.21874,620.87
0.21926,619.14
0.21982,617.76
0.2204,618.52
0.22092,619.25
0.22143,617.71
0.22201,615.64
0.22254,616.34
0.22306,617.28
0.22361,616.04
0.22412,614.37
0.22468,614.82
0.22517,615.98
0.22566,614.55
0.22618,612.68
0.22667,613.47
0.22718,614.46
0.22772,613.23
0.22827,611.25
0.22882,611.66
0.22937,612.67
0.22989,611.65
0.23041,609.39
0.23094,609.76
0.23152,611.04
0.23208,609.83
0.23262,607.96
0.23319,608.36
0.23372,609.39
0.23426,608.01
0.23478,606.45
0.23529,606.59
0.2358,607.8
0.2363,606.77
0.23681,604.67
0.23733,604.68
0.23788,605.77
0.2384,604.54
0.23893,602.72
0.23944,603.27
0.23998,604.42
0.24053,603.17
0.24107,601.6
0.24166,601.71
0.24215,602.84
0.24268,601.44
0.24324,599.43
0.2438,599.94
0.24431,601.3
0.24481,600.1
0.24535,598.15
0.24585,598.4
0.24639,600.08
0.24692,599.02
0.2474,596.84
0.24789,597.09
0.24841,598.23
0.24892,597.39
0.24943,595.2
0.24997,595.58
0.25047,597.01
0.25099,596.08
0.25153,593.92
0.2521,593.67
0.25264,595.02
0.25314,594.46
0.25364,592.49
0.25421,592.26
0.25477,593.3
0.25531,592.6
0.25584,590.66
0.25639,590.55
0.25694,591.69
0.25741,591.01
0.25789,589.12
0.25839,588.66
0.25893,589.62
0.25947,589.02
0.25996,587.18
0.26047,587.08
0.26097,588.27
0.26148,587.68
0.26199,585.75
0.2626,585.63
0.26313,586.58
0.26368,585.86
0.26421,583.75
0.26476,583.47
0.26529,584.6
0.26583,584.12
0.26633,582.32
0.26691,581.97
0.2674,583.18
0.2679,582.47
0.26837,580.54
0.2689,580.44
0.26944,581.65
0.26996,581.31
0.27046,579
0.27097,578.59
0.27149,579.93
0.272,579.38
0.27248,577.31
0.27305,576.71
0.27357,577.87
0.27412,577.71
0.27465,575.67
0.27518,575.12
0.27574,576.23
0.2763,576
0.27682,574.06
0.27734,573.38
0.27789,574.48
0.27835,574.22
0.2789,572.17
0.27941,571.39
0.27991,572.56
0.28041,572.54
0.2809,570.6
0.28141,569.74
0.28196,570.86
0.28245,570.63
0.28293,568.97
0.28346,568.26
0.28404,569.38
0.28457,569.31
0.28509,567.2
0.28562,566.27
0.28611,567.58
0.28665,567.74
0.28716,565.7
0.28769,565.03
0.28825,566.2
0.2888,565.92
0.28931,564.17
0.28983,563.69
0.29035,564.88
0.29085,565.06
0.29131,562.69
0.29181,561.82
0.29233,562.75
0.29281,563.15
0.29329,561.29
0.29385,560.22
0.29435,561.23
0.29489,561.74
0.29541,560
0.29593,559.09
0.29645,560.01
0.29698,560.19
0.29757,558.4
0.2981,557.31
0.29863,558.39
0.29911,558.72
0.29962,556.98
0.30018,555.84
0.30069,556.47
0.3012,556.94
0.30171,555.05
0.30222,553.92
0.30275,554.86
0.30326,555.34
0.3037,553.76
0.30418,552.67
0.30472,553.74
0.30523,553.73
0.30577,551.95
0.30629,550.85
0.30683,551.84
0.30734,552.07
0.30787,550.46
0.3084,549.24
0.30897,550.11
0.30951,550.6
0.31004,548.92
0.31057,547.41
0.3111,548.62
0.31162,549.35
0.31214,547.54
0.3126,546.16
0.31315,547.06
0.31363,547.38
0.3141,545.88
0.31461,544.72
0.31511,545.49
0.31563,545.82
0.31616,544.12
0.31665,542.8
0.31719,543.63
0.31775,544.34
0.31824,542.61
0.31873,541.16
0.3193,541.87
0.31986,542.51
0.32041,540.91
0.32094,539.56
0.32147,540.25
0.32197,540.77
0.3225,539.31
0.32302,537.8
0.32353,538.31
0.32406,539.05
0.32457,538.06
0.32507,536.63
0.32554,537.18
0.32602,537.79
0.32651,536.4
0.32702,534.72
0.32758,535.52
0.32811,536.51
0.32859,534.99
0.32906,533.7
0.32963,534.19
0.33014,534.9
0.33067,533.62
0.33119,532.1
0.33176,532.8
0.33231,533.64
0.33283,532.25
0.33337,530.88
0.33388,531.6
0.33434,532.51
0.33486,531.21
0.3354,529.33
0.33583,530.01
0.33634,530.96
0.3368,529.79
0.33737,528.37
0.3379,528.85
0.33835,529.58
0.33887,528.5
0.33944,526.72
0.33996,527.27
0.34048,528.14
0.34093,526.88
0.34149,525.58
0.34205,525.98
0.34258,526.55
0.34312,525.03
0.34363,523.72
0.3441,524.26
0.34459,525.15
0.34509,523.99
0.34561,522.5
0.34612,522.94
0.34661,523.83
0.3471,522.43
0.34763,520.91
0.34816,521.25
0.34864,522.12
0.34918,520.87
0.34969,519.3
0.35017,519.91
0.35071,520.61
0.35124,519.59
0.35178,518.13
0.35237,518.47
0.35287,519.36
0.35338,518.26
0.35393,516.68
0.35446,516.7
0.35494,517.59
0.35548,516.83
0.35598,515.23
0.35647,515.3
0.35697,516.4
0.35745,515.43
0.35792,513.58
0.35841,513.95
0.35893,514.99
0.35944,514.09
0.35996,512.28
0.3605,512.57
0.36103,513.27
0.36153,512.39
0.36208,510.9
0.36261,510.91
0.36314,511.84
0.36369,511.04
0.36425,509.43
0.36476,509.35
0.36526,510.41
0.36573,509.81
0.36628,508.23
0.36678,508.18
0.36729,509.06
0.36778,508.58
0.36827,506.82
0.36873,506.86
0.36926,507.79
0.36975,507.33
0.37021,505.52
0.37071,505.59
0.37127,506.64
0.37178,506.15
0.37233,504.5
0.37288,504.36
0.37338,505.42
0.37392,504.84
0.37447,503.34
0.37502,503.18
0.37556,504.11
0.37605,503.41
0.37656,501.92
0.37705,501.72
0.37754,503.1
0.37802,502.57
0.37856,500.82
0.37905,500.65
0.37956,501.8
0.38007,501.3
0.38058,499.82
0.3811,499.28
0.38162,500.26
0.38214,499.96
0.38262,498.08
0.38313,497.72
0.38366,498.61
0.38417,498.56
0.38474,496.76
0.3853,496.2
0.38584,497.09
0.38638,496.87
0.38686,495.34
0.38741,495.13
0.38795,496.15
0.38846,495.59
0.38896,493.77
0.38947,493.48
0.38992,494.71
0.39041,494.45
0.3909,492.72
0.39142,492.2
0.39191,493.16
0.39241,492.97
0.39299,491.4
0.39353,490.79
0.39412,491.6
0.39467,491.59
0.39514,489.94
0.39568,489.1
0.39624,489.93
0.39673,489.88
0.39729,488.16
0.39789,487.69
0.39842,488.48
0.39896,488.42
0.39948,486.61
0.39998,486.06
0.40046,487.03
0.40093,487.02
0.40142,485.4
0.40198,484.37
0.40246,485.36
0.40298,485.28
0.4035,483.55
0.40403,482.82
0.40454,483.64
0.40508,483.51
0.40565,481.9
0.40618,481.05
0.40672,481.76
0.4073,482.03
0.40783,480.45
0.40844,479.48
0.40898,480.24
0.40945,480.38
0.40994,478.69
0.41046,477.88
0.41092,478.72
0.41143,478.84
0.41196,477.23
0.41246,476.59
0.41296,477.61
0.41342,477.59
0.41392,475.87
0.41447,475.19
0.41504,476.14
0.41555,476.04
0.41608,474.55
0.41663,473.46
0.41714,474.31
0.41764,474.54
0.41819,473.04
0.41879,471.76
0.4193,472.86
0.4198,473.07
0.42033,471.46
0.42084,470.52
0.42137,471.26
0.42191,471.3
0.42239,469.85
0.42287,469.07
0.42335,469.94
0.42384,469.99
0.42436,468.53
0.4249,467.38
0.42542,468.08
0.42591,468.41
0.42635,467
0.42693,466.07
0.42744,466.83
0.42795,467.09
0.42853,465.6
0.42912,464.64
0.42963,465.3
0.43013,465.55
0.4307,463.96
0.43119,462.99
0.43171,463.69
0.43223,464.21
0.43271,462.89
0.43323,461.64
0.43374,462.4
0.43421,463
0.43469,461.74
0.43522,460.48
0.43577,461.16
0.43628,461.61
0.43683,460.18
0.43731,459.01
0.43779,459.59
0.43835,459.96
0.43886,458.64
0.43937,457.28
0.43997,457.85
0.44047,458.49
0.44102,457.43
0.44157,455.99
0.44207,456.61
0.4426,457.22
0.44315,455.8
0.44367,454.58
0.44417,455.13
0.44464,455.45
0.44512,454.19
0.4456,452.99
0.44609,453.51
0.44657,453.88
0.44707,452.74
0.4476,451.73
0.44817,452.03
0.44868,452.79
0.4492,451.57
0.44976,449.85
0.45026,450.32
0.4508,451.12
0.45133,449.63
0.45189,448.29
0.45244,448.72
0.45296,449.58
0.45344,448.52
0.45395,447.02
0.45445,447.2
0.45496,448.08
0.45541,447.16
0.45592,445.62
0.45641,446.11
0.45686,446.98
0.45732,445.98
0.45781,444.41
0.45838,444.64
0.45894,445.34
0.45943,444.26
0.45994,442.76
0.46049,443.2
0.46102,443.94
0.46154,442.9
0.46208,441.32
0.46259,441.57
0.46313,442.59
0.46363,441.35
0.46417,439.77
0.46467,440.21
0.46514,441.02
0.46567,440.1
0.46616,438.59
0.46661,438.64
0.46706,439.29
0.46747,438.56
0.46799,437.06
0.46852,437.28
0.46904,438.09
0.46955,437.29
0.47012,435.86
0.47061,436.18
0.47112,437.07
0.47164,436.06
0.47217,434.68
0.4727,434.91
0.47326,435.61
0.47375,434.49
0.47425,433.24
0.47477,433.71
0.47525,434.43
0.47574,433.6
0.47624,432.33
0.47676,432.61
0.47728,433.38
0.47778,432.67
0.47821,431.01
0.47871,431.21
0.47926,432.17
0.47976,431.52
0.48029,429.93
0.48076,429.92
0.48126,431.05
0.48178,430.18
0.48228,428.74
0.48285,428.68
0.48341,429.52
0.48396,428.94
0.48447,427.36
0.48502,427.35
0.48559,428.23
0.48607,427.57
0.48654,426.13
0.48703,426
0.48753,427.06
0.48801,426.53
0.48854,424.86
0.48903,424.8
0.48949,425.96
0.48997,425.47
0.49051,423.78
0.49105,423.65
0.49156,424.65
0.4921,423.97
0.49259,422.32
0.49307,422.35
0.49359,423.49
0.4941,422.85
0.49465,421.24
0.4952,421.19
0.49572,422.12
0.49627,421.61
0.49676,420.09
0.49727,419.99
0.49779,421.07
0.49832,420.46
0.49874,418.95
0.49919,418.81
0.49971,419.64
0.50025,419.32
0.50076,417.9
0.50127,417.39
0.5018,418.34
0.50232,418.09
0.50286,416.46
0.50341,416.05
0.50393,416.88
0.50445,416.55
0.50499,415.12
0.50555,414.76
0.50612,415.61
0.5066,415.27
0.50708,413.93
0.50762,413.39
0.50813,414.22
0.50867,413.87
0.50914,412.4
0.50959,412.09
0.51005,412.91
0.51057,412.79
0.5111,411.23
0.51159,410.84
0.51214,411.65
0.51267,411.37
0.51316,409.86
0.51364,409.42
0.51421,410.25
0.51476,410.18
0.51527,408.63
0.51583,408
0.51644,408.92
0.51692,408.95
0.51739,407.55
0.51792,406.88
0.51848,407.88
0.51895,407.61
0.5194,406.17
0.51995,405.68
0.52046,406.44
0.52094,406.45
0.5214,404.96
0.52184,404.28
0.5223,405.2
0.52286,405.34
0.52338,403.75
0.52391,402.8
0.52447,403.6
0.525,403.82
0.52549,402.49
0.52602,401.77
0.52657,402.57
0.52709,402.63
0.52767,401.07
0.52824,400.4
0.52879,401.22
0.52931,401.4
0.52976,400.01
0.53026,399.29
0.53076,400.12
0.53119,400.42
0.53164,399
0.53213,398.23
0.53264,399.2
0.53318,399.39
0.53366,398.01
0.53421,397.22
0.53473,398.02
0.53523,398.34
0.53574,397.04
0.53624,396.12
0.53673,396.9
0.53726,397.42
0.53784,395.96
0.53833,395.28
0.53889,396.1
0.53941,396.37
0.53986,395.17
0.54037,394.24
0.5409,395
0.5414,395.46
0.54187,393.96
0.54236,393.12
0.54285,393.69
0.54334,394.12
0.54385,393.04
0.54433,392.17
0.54489,392.87
0.54541,393.24
0.54591,391.96
0.54644,391.09
0.54695,391.82
0.54747,392.32
0.548,391
0.54851,389.94
0.54901,390.52
0.54956,390.87
0.55005,389.82
0.55054,388.88
0.55107,389.62
0.55157,389.91
0.5521,388.81
0.55256,388.07
0.55302,388.51
0.5535,388.92
0.55403,387.77
0.55451,386.79
0.555,387.44
0.55548,388.03
0.55602,386.89
0.55655,385.83
0.55702,386.56
0.55753,387.07
0.55808,385.84
0.55864,384.82
0.55922,385.47
0.55972,386.17
0.56019,385.03
0.56072,384.02
0.56126,384.37
0.56177,384.87
0.5622,383.82
0.56262,382.87
0.56311,383.53
0.56357,384.14
0.56407,383.19
0.56456,381.99
0.56509,382.53
0.56555,383.3
0.56606,382.31
0.56658,381.21
0.56707,381.68
0.56759,382.32
0.56811,381.41
0.56866,380.23
0.56917,380.61
0.5697,381.21
0.57021,380.47
0.57074,379.33
0.57126,379.84
0.57171,380.69
0.57216,379.75
0.57266,378.59
0.57319,379.16
0.57371,379.9
0.57418,379.02
0.5746,377.94
0.57501,378.49
0.57543,379.24
0.57592,378.64
0.57642,377.59
0.57691,377.95
0.57745,378.73
0.57793,378.06
0.57841,377.04
0.57892,377.48
0.57939,378.43
0.57991,377.89
0.58036,376.83
0.5809,377.3
0.58135,377.69034
0.58179,376.6514
0.58222,375.0431
0.58264,375.08538
0.58305,375.71763
0.58346,374.85138
0.58384,373.3144
0.58431,373.19364
0.58476,374.0629
0.58518,373.17141
0.58561,371.80095
0.58602,371.66084
0.58646,372.28386
0.58689,371.43726
0.58731,369.93099
0.58778,369.98968
0.5882,370.54559
0.58866,369.75587
0.58916,368.18082
0.5896,368.25188
0.59009,368.90863
0.59051,368.20019
0.59092,366.96184
0.59132,366.99349
0.59172,367.67509
0.59214,366.99065
0.59259,365.6304
0.59298,365.65489
0.59339,366.36247
0.59381,365.81104
0.59419,364.53719
0.5946,364.59767
0.59505,365.34386
0.59552,364.83365
0.59595,363.52979
0.59643,363.44329
0.59694,364.21197
0.59733,363.68642
0.59783,362.13642
0.59831,362.25513
0.59876,362.99102
0.59918,362.41385
0.59959,361.10629
0.60005,361.24699
0.60047,362.133
0.60093,361.43605
0.60138,360.1288
0.6018,359.97808
0.60218,361.08052
0.60256,360.60537
0.60296,359.45431
0.60339,359.35747
0.60384,360.22665
0.60434,359.90713
0.60483,358.57567
0.60527,358.42688
0.60569,359.0957
0.60616,358.74448
0.60663,357.35454
0.60713,357.21141
0.60759,358.12223
0.60804,357.7724
0.60853,356.40332
0.60905,356.26957
0.60946,357.11568
0.60988,356.84477
0.6103,355.6049
0.61075,355.47218
0.61123,356.44682
0.61164,356.24817
0.61203,355.10419
0.61251,354.77237
0.61298,355.60973
0.61337,355.6309
0.61383,354.3084
0.61432,353.97383
0.61479,354.97838
0.61528,354.76654
0.61577,353.51608
0.61623,353.30999
0.61671,354.02986
0.6172,353.79583
0.61772,352.60807
0.61819,352.25963
0.61867,353.02741
0.61915,353.05408
0.61955,351.76939
0.62001,351.38593
0.62049,352.34632
0.62102,352.20103
0.62147,351.02633
0.62191,350.79017
0.62237,351.52048
0.62281,351.49663
0.62321,350.20302
0.62369,349.7723
0.62418,350.55567
0.62465,350.46484
0.62511,349.30528
0.62565,348.97694
0.62618,349.68026
0.62666,349.5978
0.62717,348.37546
0.62771,347.79647
0.62817,348.73227
0.62863,348.86931
0.6291,347.58061
0.62965,346.95078
0.63014,347.82106
0.63063,347.69271
0.63109,346.53945
0.63152,346.20478
0.63191,347.07522
0.6324,347.0119
0.63287,345.85671
0.63334,345.44959
0.63385,346.10692
0.63437,346.2624
0.63489,344.95613
0.63538,344.43125
0.63588,345.10457
0.63641,345.10626
0.63687,343.9653
0.63739,343.27999
0.63793,343.90981
0.63846,343.99128
0.63902,342.78515
0.6395,341.94839
0.63997,342.67932
0.64042,343.07422
0.64087,342.02029
0.64133,341.31125
0.64187,341.91703
0.64235,341.97819
0.6429,340.91193
0.64339,340.25704
0.64396,340.89086
0.64447,341.02592
0.64502,339.91401
0.64561,339.18936
0.64625,339.7363
0.64684,339.80437
0.6474,338.58141
0.64798,337.83787
0.64857,338.47388
0.64921,338.64378
0.64977,337.47995
0.65035,336.70156
0.65091,337.25593
0.65148,337.47573
0.65199,336.4053
0.6525,335.53155
0.653,336.06876
0.65355,336.27431
0.65407,335.18225
0.65456,334.53366
0.65512,335.06122
0.6557,335.28441
0.65625,334.2555
0.6568,333.10771
0.65743,333.57703
0.65799,334.05069
0.65855,333.05922
0.65917,332.13023
0.65973,332.83869
0.66024,333.35878
0.66091,332.26801
0.66156,331.27011
0.66218,331.86092
0.66272,332.43503
0.6633,331.30452
0.6639,330.65104
0.66442,331.23089
0.6649,331.67948
0.6654,330.78219
0.66593,329.87904
0.66648,330.15708
0.66702,330.70094
0.66754,329.94769
0.66811,329.17271
0.66866,329.74355
0.66923,330.1385
0.66978,329.05635
0.67039,328.17952
0.67105,328.58094
0.6716,329.03868
0.6722,328.22466
0.67281,327.25767
0.67341,327.65358
0.67394,328.21996
0.67448,327.35045
0.67513,326.42158
0.67565,326.76079
0.67623,327.20238
0.67672,326.4174
0.67728,325.53479
0.67784,326.0992
0.67831,326.55001
0.67886,325.72024
0.67941,324.71043
0.67998,325.08178
0.6805,325.72072
0.68104,324.87082
0.68163,323.98912
0.68215,324.29797
0.68278,324.62443
0.68333,323.77439
0.68391,322.88254
0.6845,323.23066
0.6851,323.55579
0.68567,322.83972
0.68624,321.86361
0.68686,322.06274
0.68736,322.65424
0.68789,321.96982
0.68839,320.91127
0.68897,321.22204
0.68948,321.77048
0.68995,321.10069
0.69042,320.12087
0.69096,320.29332
0.69154,320.68394
0.69214,320.00861
0.69266,319.03391
0.6932,319.28623
0.69374,320.01556
0.69441,319.30236
0.69494,318.15458
0.69551,318.39789
0.69612,319.04934
0.69665,318.24146
0.6972,317.14059
0.69777,317.56376
0.6983,318.26579
0.69882,317.49369
0.69936,316.49269
0.69988,316.78054
0.70038,317.41133
0.70084,316.95393
0.70138,315.96577
0.7019,316.05055
0.70247,316.70343
0.70301,316.13221
0.7036,315.03909
0.70406,315.15153
0.70458,315.68912
0.70521,315.16403
0.70577,314.25967
0.70634,314.41935
0.70688,314.93086
0.70742,314.48938
0.70796,313.42083
0.70855,313.61739
0.70913,314.33689
0.70967,313.85527
0.71022,312.54361
0.71071,312.5668
0.7112,313.19996
0.71175,312.90822
0.71223,311.9543
0.71269,312.07631
0.71324,312.76447
0.71373,312.3375
0.71427,311.20858
0.71483,311.34069
0.71539,311.99575
0.71598,311.50183
0.71651,310.52278
0.71705,310.4737
0.7176,311.1816
0.71809,310.93439
0.71863,309.91224
0.71928,309.78319
0.71989,310.36305
0.7204,310.05974
0.72095,308.98744
0.72149,308.90511
0.72202,309.83873
0.72248,309.53024
0.72302,308.44782
0.72353,308.36733
0.72398,309.07176
0.72448,308.90121
0.72501,307.97166
0.72558,307.8031
0.72604,308.38444
0.72657,308.17779
0.72713,307.09914
0.72764,306.90841
0.72822,307.6867
0.7288,307.57195
0.72938,306.54016
0.72997,306.16534
0.73059,306.77149
0.73119,306.54359
0.7317,305.54264
0.73213,305.55967
0.73267,306.15967
0.73317,305.93864
0.73368,304.90759
0.73422,304.73449
0.73476,305.56437
0.73524,305.24924
0.73569,304.14309
0.73623,304.15987
0.73679,304.95362
0.73729,304.97237
0.7378,303.89109
0.73841,303.61971
0.73894,304.36934
0.73941,304.27699
0.73995,303.26656
0.74044,303.01814
0.74105,303.73659
0.74165,303.608
0.7422,302.57443
0.7428,302.22577
0.7433,303.00418
0.7438,303.06257
0.74431,302.00092
0.74487,301.59117
0.74536,302.40549
0.7458,302.62186
0.74623,301.68821
0.74669,301.2685
0.74724,302.08463
0.74775,302.02978
0.74829,301.02886
0.74883,300.64791
0.74932,301.35901
0.74985,301.428
0.75043,300.51488
0.75094,300.27985
0.75144,300.83177
0.75199,300.82552
0.7525,299.87133
0.75309,299.3929
0.75361,300.07562
0.75408,300.14342
0.75454,299.28423
0.75499,298.93803
0.75544,299.82181
0.7559,299.88254
0.75638,298.96718
0.75684,298.59785
0.75732,299.32244
0.75777,299.53608
0.75823,298.66667
0.75875,298.30905
0.75926,299.04442
0.75969,299.33403
0.76021,298.29631
0.76073,297.80159
0.76124,298.53683
0.76177,298.82598
0.76227,297.95419
0.76283,297.55416
0.7634,298.20105
0.76386,298.45131
0.76438,297.57332
0.7649,297.17594
0.7654,297.93413
0.76592,298.20977
0.76638,297.42637
0.76688,297.06501
0.76738,297.7138
0.76789,297.89274
0.7684,297.08915
0.76891,296.68572
0.76951,297.35102
0.77006,297.76991
0.77065,297.06829
0.77124,296.56689
0.77172,297.21966
0.77229,297.52395
0.77286,296.59845
0.77347,295.97253
0.77407,296.67948
0.77461,297.15251
0.77522,296.29724
0.77575,295.61064
0.77628,296.34684
0.77681,296.81058
0.77736,296.01187
0.77789,295.39596
0.77845,296.10498
0.77904,296.50635
0.77955,295.7662
0.78005,295.35882
0.78053,296.03679
0.78105,296.3645
0.78156,295.56497
0.78208,295.1256
0.78267,295.71826
0.78329,296.18338
0.78386,295.52163
0.78436,294.7651
0.78493,295.19372
0.78554,295.28983
0.78615,294.33586
0.78672,293.59422
0.78727,294.17374
0.78787,294.55512
0.78838,293.78132
0.78884,293.05553
0.78937,293.39599
0.78993,293.49954
0.79045,292.68986
0.79095,291.99698
0.79143,292.49967
0.79189,292.96354
0.79244,292.20237
0.79299,291.49551
0.79351,291.96107
0.79401,292.3522
0.79458,291.44949
0.79515,290.44671
0.79571,290.74948
0.79635,290.96709
0.79699,290.16025
0.7975,289.52532
0.7981,289.82086
0.79871,290.21503
0.79921,289.44553
0.79976,288.69339
0.80032,289.16554