strain,stress
0.00134,49.882
0.00152,53.415
0.00172,58.527
0.00193,63.176
0.00214,68.147
0.00234,71.832
0.00253,76.071
0.00274,80.275
0.00294,84.936
0.0031,90.585
0.00334,96.965
0.00352,100.34
0.00374,105.55
0.00395,108.68
0.00418,112.22
0.00439,114.37
0.00462,115.14
0.00479,115.88
0.00497,118.32
0.00513,120.81
0.00536,124.88
0.00561,126.63
0.00582,126.47
0.00596,127.08
0.0062,128.93
0.00637,129.25
0.00659,130.58
0.00675,131.49
0.00693,135.36
0.00719,136.48
0.00738,137.27
0.00762,137.61
0.00775,138.36
0.00798,139.54
0.00817,140.44
0.00836,141.59
0.00861,142.33
0.00872,143.14
0.00895,146.62
0.00917,147.36
0.0094,147.01
0.00962,146.27
0.00982,143.98
0.00995,145.42
0.0102,146.03
0.0104,146.68
0.0106,146.59
0.01081,147.29
0.01096,148.81
0.01119,149.73
0.01135,150.79
0.01161,151.47
0.01174,152.17
0.012,155.5
0.01221,155.35
0.01244,154.61
0.0127,151.21
0.0128,148.79
0.01302,149.22
0.01318,150.17
0.01332,153.76
0.01358,156.5
0.01382,156.88
0.01401,155.23
0.01422,154.43
0.01436,154.23
0.01458,155.24
0.01481,154.34
0.01497,154.46
0.01516,154.98
0.01537,155.43
0.01559,156.09
0.01583,155.32
0.01598,154.39
0.01617,155.22
0.01637,156.19
0.01659,157.28
0.01682,157.81
0.01701,156.27
0.0172,156.03
0.01741,155.72
0.01763,155.8
0.01779,154.75
0.01797,155.86
0.0182,157.1
0.01837,156.78
0.01862,158.23
0.01881,157.61
0.019,157.2
0.01922,157.03
0.01939,156.81
0.0196,156.58
0.01978,157.07
0.01997,157.85
0.02021,158.05
0.02038,158.18
0.02056,159.04
0.02078,159.65
0.02097,160.53
0.02117,160.24
0.02136,160.53
0.02155,162.35
0.02178,163.22
0.02202,162.65
0.02218,161.11
0.02243,160.52
0.02261,158.83
0.02278,158.65
0.023,158.36
0.02316,158.84
0.02339,160.09
0.0236,159.79
0.02378,159.97
0.02396,160.54
0.02417,161.48
0.0244,162.01
0.02459,160.6
0.02482,160.67
0.02498,159.92
0.02519,160.72
0.02537,161.41
0.02559,161.82
0.02581,161.15
0.026,160.39
0.02622,159.49
0.02641,158.41
0.02658,158.01
0.02677,158.36
0.02697,159.24
0.02717,160
0.0274,160.06
0.02756,160.33
0.02777,161.15
0.02798,161.35
0.02819,161.71
0.02839,160.89
0.0286,160.85
0.02877,161.05
0.02899,161.59
0.02919,161.75
0.02936,162.5
0.02962,162.86
0.02982,161.43
0.02999,161.15
0.03022,160.89
0.0304,160.67
0.03059,161.08
0.03082,161.06
0.03101,160.61
0.0312,160.97
0.03142,160.99
0.0316,161.01
0.03181,160.89
0.03201,161.08
0.03218,161.47
0.03238,162.01
0.03261,162.16
0.0328,160.7
0.033,160.35
0.0332,160.14
0.03338,160.16
0.03361,160.27
0.03378,160.54
0.034,161.27
0.03423,161.41
0.03441,161.43
0.03462,160.59
0.03482,160.63
0.03501,161
0.03521,160.8
0.0354,162.19
0.0356,161.85
0.03581,161.47
0.036,161.07
0.03622,160.13
0.03643,159.14
0.0366,158.88
0.03681,159.43
0.037,159.82
0.03719,160.22
0.03742,160.43
0.03761,160.7
0.03781,160.84
0.03803,160.15
0.03821,160.15
0.0384,160.25
0.03861,160.04
0.03878,160.22
0.039,159.19
0.0392,159.65
0.03938,159.31
0.03957,160.59
0.03978,162.12
0.03998,163.41
0.04022,163.35
0.0404,162.87
0.04062,162.46
0.04082,161.89
0.04101,160.85
0.0412,160.22
0.0414,159.88
0.04159,159.59
0.0418,158.8
0.04197,157.89
0.04217,159.01
0.04239,158.82
0.0426,159.03
0.04279,158.12
0.043,158.24
0.0432,157.95
0.04341,157.7
0.04362,157.56
0.04378,157.52
0.044,157.91
0.0442,157.34
0.04437,157.74
0.04459,158.1
0.0448,157.6
0.04498,156.83
0.04519,156.09
0.04537,156.64
0.04558,157.51
0.04579,157.34
0.04599,157.47
0.04619,157.34
0.04642,157.81
0.04661,156.83
0.04681,157.01
0.04702,156.26
0.0472,155.54
0.0474,155.15
0.04758,155.56
0.04779,156.33
0.04799,155.95
0.04818,155.95
0.04839,156.39
0.04861,156.55
0.04881,156.38
0.049,155.89
0.04921,156.31
0.04941,155.93
0.04963,155.62
0.04981,155.66
0.05001,155.19
0.05022,155.22
0.0504,154.79
0.0506,155.53
0.05082,155.31
0.05099,154.79
0.05119,154.84
0.0514,154.53
0.0516,154.04
0.05181,154.06
0.052,153.63
0.05221,153.97
0.05241,153.32
0.05262,153.24
0.05279,152.86
0.05302,153.22
0.0532,153.59
0.0534,153.37
0.05361,154.06
0.05378,154.21
0.05399,155
0.0542,154.86
0.05437,154.6
0.05458,154.73
0.0548,154.75
0.055,154.87
0.0552,154.38
0.05542,154.45
0.05561,154.1
0.0558,153.66
0.056,153.98
0.05621,153.91
0.05641,153.8
0.05659,153.78
0.0568,153.46
0.057,153.77
0.05717,152.91
0.0574,153.5
0.05758,152.71
0.05778,152.83
0.058,152.39
0.05819,152.75
0.0584,152.5
0.05861,152.55
0.05881,152.5
0.059,152.17
0.0592,152.53
0.0594,152.49
0.0596,152.73
0.05981,152.57
0.05999,152.35
0.0602,151.99
0.06039,152.33
0.06058,151.86
0.06081,151.9
0.06098,150.9
0.0612,151.14
0.06139,150.38
0.06159,150.73
0.06181,150.66
0.062,150.34
0.06218,150.1
0.06239,150.26
0.06262,150.79
0.0628,150.16
0.063,150.09
0.0632,150.56
0.06341,150.19
0.06364,149.32
0.06381,149.11
0.06402,148.6
0.06422,148.58
0.06441,148.27
0.06462,148.1
0.06483,148.4
0.06499,148.87
0.06521,148.69
0.0654,149.07
0.06561,149.38
0.06582,149.01
0.06598,148.66
0.0662,148.62
0.06641,148.31
0.06657,148.56
0.06679,148.75
0.067,148.98
0.06719,148.68
0.0674,149
0.0676,149.29
0.06779,148.99
0.06803,148.97
0.06821,148
0.0684,148.95
0.06863,148.9
0.0688,149.06
0.06901,148.73
0.06923,148.48
0.06941,148.25
0.06961,148.63
0.06985,148.77
0.07002,148.15
0.07022,147.31
0.07042,147.73
0.07061,148.11
0.07084,147.98
0.07101,147.77
0.0712,147.74
0.07143,148.63
0.07161,147.43
0.07183,147.81
0.07202,147.27
0.07218,147.54
0.07243,147.62
0.07263,147.35
0.0728,147.1
0.07302,147.31
0.07323,146.63
0.07339,146.42
0.07361,146.54
0.07379,145.8
0.074,146.2
0.07423,146.32
0.07439,145.96
0.0746,146.21
0.07481,146.17
0.07499,145.79
0.07519,146.61
0.07541,145.97
0.07558,145.62
0.07583,145.03
0.076,145.25
0.07619,145.46
0.07641,146.14
0.07661,145.79
0.0768,145.3
0.07701,145.23
0.07718,145.73
0.07741,145.46
0.0776,144.6
0.07776,145.49
0.07802,146.3
0.07821,145.46
0.07838,144.89
0.07862,145.25
0.0788,144
0.07899,144.75
0.07923,144.41
0.07941,144.31
0.07961,143.7
0.07981,143.47
0.07999,144.07
0.08022,143.96
0.08042,143.47
0.08059,143.34
0.08082,143.44
0.08101,142.91
0.08119,143.05
0.08142,143.41
0.08161,143.06
0.0818,143.26
0.08203,142.96
0.0822,142.19
0.08238,142.77
0.08261,143.34
0.08281,143.46
0.08301,142.84
0.08325,142.59
0.0834,141.6
0.08361,141.65
0.08382,142.19
0.08399,141.73
0.08422,141.74
0.0844,141.66
0.0846,141.13
0.08482,141.28
0.08501,141.43
0.0852,141.07
0.08542,141.04
0.08559,140.75
0.0858,141.68
0.08604,141.12
0.08619,141.42
0.0864,141.34
0.08664,140.83
0.08678,140.45
0.08702,141.13
0.08722,141.39
0.0874,140.56
0.08764,140.18
0.0878,139.82
0.088,139.98
0.08824,140
0.0884,139.61
0.0886,140.24
0.08882,140.21
0.08899,140.6
0.0892,140.79
0.08942,140.13
0.08961,139.91
0.08982,138.98
0.09003,138.93
0.0902,138.36
0.0904,139.06
0.09062,138.99
0.0908,139.13
0.09103,138.73
0.09119,138.4
0.09141,138.42
0.09163,138.46
0.0918,138.67
0.092,139.07
0.09224,138.61
0.0924,137.95
0.09261,138.05
0.09283,138.65
0.09302,137.78
0.09322,137.42
0.09342,137.92
0.09361,137.56
0.09384,137.88
0.09401,137.07
0.0942,137.69
0.09445,137.38
0.09462,137.15
0.0948,137.28
0.09503,137.79
0.09523,137.39
0.09542,136.86
0.09562,136.94
0.09581,136.87
0.09603,136.9
0.09624,137.11
0.09642,136.21
0.09661,136.15
0.09681,136.58
0.09701,135.76
0.09722,136.21
0.09739,135.71
0.09761,135.82
0.09782,135.26
0.09797,136.01
0.0982,136.31
0.0984,135.94
0.09855,136.25
0.09877,137.37
0.09899,137.75
0.09918,137.48
0.09939,137.52
0.09962,137.48
0.09978,136.09
0.1,136.73
0.10023,136.22
0.10041,135.14
0.10065,134.95
0.10082,132.9
0.10102,132.68
0.10122,131.85
0.10139,132.14
0.10161,132.63
0.10182,133.25
0.102,132.94
0.10219,132.96
0.10241,133.74
0.10259,133.7
0.10281,133.71
0.10301,133.98
0.10319,133.61
0.10341,133.89
0.1036,132.86
0.10379,131.98
0.10399,131.83
0.10416,132.01
0.10436,132.61
0.10461,132.36
0.10476,132.03
0.10498,132.12
0.10518,132.92
0.10537,133.54
0.10559,133.56
0.10579,133.89
0.106,133.83
0.10621,133.39
0.10642,133.02
0.10661,131.46
0.10682,131.78
0.10702,130.8
0.10719,131.16
0.10741,131.63
0.10759,132.09
0.10782,132
0.108,130.9
0.10819,131.54
0.10841,131.69
0.10863,131.28
0.1088,130.06
0.10898,129.86
0.10919,130.48
0.10937,130.51
0.10959,129.82
0.10978,130.45
0.10998,130.59
0.11019,130.64
0.11038,130.21
0.11057,130.49
0.11082,130.45
0.11101,129.29
0.11117,128.61
0.1114,129.36
0.1116,129.78
0.11179,130.32
0.11202,130.52
0.11221,129.88
0.11242,129.43
0.11262,129.1
0.1128,129.35
0.11304,129.19
0.11323,128.62
0.11342,128.49
0.11363,127.88
0.1138,127.19
0.11399,128.02
0.11422,127.48
0.11439,127.61
0.11459,127.82
0.11481,127.61
0.11496,127.94
0.1152,128.1
0.11541,127.76
0.11558,126.96
0.11578,127.32
0.11598,127.92
0.11618,127.21
0.11639,127.32
0.11657,127.71
0.11677,127.73
0.117,128.14
0.11719,127.3
0.11738,128.06
0.11761,128.08
0.11781,128.32
0.11801,127.28
0.1182,127.4
0.11841,127.36
0.1186,126.61
0.1188,127.08
0.119,126.53
0.1192,126.22
0.11939,126.46
0.11962,126.28
0.11981,125.49
0.12,125.77
0.12023,124.99
0.12042,124.3
0.1206,124.87
0.12079,125.18
0.12102,124.37
0.12121,124.48
0.1214,124.84
0.12161,125.54
0.1218,125.33
0.12201,124.73
0.12219,125.2
0.12238,125.71
0.12262,125.76
0.12283,124.8
0.123,124.01
0.12321,123.89
0.1234,124.14
0.1236,123.87
0.12378,124.23
0.12399,124.57
0.1242,123.87
0.12439,124.03
0.1246,124.67
0.1248,123.8
0.12502,123.68
0.12516,122.98
0.12539,124.12
0.12558,124.52
0.12579,124.23
0.126,123.95
0.12618,123.73
0.1264,123.99
0.1266,123.31
0.12677,123.34
0.12699,123.99
0.1272,124.17
0.1274,123.59
0.12761,123.12
0.1278,122.93
0.12798,123.53
0.12822,122.7
0.12842,123.13
0.1286,122.81
0.12884,122.64
0.12899,122.87
0.1292,122.51
0.12943,123.17
0.1296,122.98
0.12981,122.9
0.13003,122.14
0.13017,122.16
0.13038,122.41
0.13062,122.38
0.13077,121.81
0.13096,122.14
0.13119,122.6
0.1314,122.17
0.13159,121.17
0.1318,121.96
0.13198,121.41
0.13223,121.25
0.1324,121.23
0.1326,121.71
0.13283,121.47
0.13301,120.72
0.13319,121.3
0.13342,121.2
0.13361,120.74
0.13379,119.97
0.13397,120.82
0.13417,121.53
0.13438,120.9
0.13461,120.71
0.13479,119.75
0.135,119.19
0.13522,119.73
0.1354,118.48
0.13562,119.18
0.13582,119.16
0.136,118.81
0.13619,118.74
0.13639,119.59
0.13657,119.34
0.13681,119.54
0.137,118.92
0.13716,118.74
0.1374,119.28
0.13758,119.58
0.13783,120
0.13803,119.27
0.1382,118.47
0.13842,118.68
0.13861,119.21
0.13881,119.6
0.13903,119.29
0.13922,118.36
0.13939,119.03
0.13963,118.47
0.13979,118.68
0.14,119.37
0.14024,119.53
0.14042,118.51
0.14059,118.04
0.14083,118.05
0.14102,117.86
0.14125,117.45
0.14147,116.79
0.14159,116.4
0.14183,117.4
0.14204,117.29
0.14222,116.55
0.14244,116.57
0.14261,116.77
0.14282,116.69
0.14302,115.66
0.1432,116.5
0.14338,116.75
0.14362,117.2
0.14381,116.07
0.14399,115.53
0.14421,116.72
0.14442,116.77
0.14463,116.88
0.14484,115.98
0.145,115.67
0.14522,116.53
0.14543,116.89
0.14562,116.78
0.14584,115.96
0.14602,115.54
0.1462,116.39
0.1464,116.41
0.14663,116.17
0.14679,115.37
0.14701,115.67
0.14718,115.5
0.14739,115.52
0.14761,114.78
0.14778,114.59
0.148,115.39
0.14823,115.22
0.14842,115.85
0.14863,114.93
0.14882,114.56
0.149,115.2
0.14921,115.18
0.14941,114.77
0.14959,115.05
0.1498,114.9
0.15001,114.69
0.15018,113.87
0.15038,114.39
0.15058,114.63
0.15079,114.6
0.151,114
0.15119,113.76
0.15139,113.29
0.1516,112.71
0.15179,113.66
0.15202,114.21
0.15221,113.84
0.15241,113.81
0.15261,112.88
0.1528,113.32
0.15299,113.51
0.15322,113.67
0.1534,113.39
0.15358,113.25
0.15382,113.13
0.15399,112.34
0.15416,113.42
0.15441,113.8
0.15461,112.99
0.15476,112.76
0.15499,113.37
0.15518,113.25
0.15537,112.74
0.1556,112.5
0.15577,112.17
0.15597,112.34
0.1562,112.52
0.15636,112.27
0.1566,112.25
0.15679,112.05
0.15699,111.97
0.15719,111.78
0.15739,111.65
0.15758,112.18
0.1578,111.9
0.15802,111.83
0.15819,111.77
0.1584,111.92
0.1586,111.45
0.15877,111.35
0.159,111.61
0.15919,111.9
0.15939,111.81
0.15961,111.32
0.15977,110.75
0.15998,110.89
0.16018,110.71
0.16038,110.6
0.16059,111.29
0.16077,110.74
0.16098,110.88
0.16119,110.72
0.1614,110.78
0.16158,109.98
0.1618,110.23
0.16199,110.06
0.16216,109.73
0.16238,110.38
0.16259,110.01
0.16277,109.72
0.16299,109.72
0.16318,109.8
0.16337,109.42
0.16358,109.53
0.16378,109.72
0.16399,109.72
0.1642,109.14
0.16437,109.57
0.1646,109.59
0.16481,109.6
0.16498,109.21
0.16522,109.2
0.1654,109.01
0.1656,109.25
0.16582,109.32
0.166,108.72
0.16619,108.97
0.16643,109.31
0.16661,109.06
0.1668,108.79
0.16701,107.97
0.16719,107.76
0.16735,107.96
0.1676,109.21
0.16779,109.36
0.16799,108.95
0.1682,108.76
0.1684,108.24
0.1686,108.42
0.16883,108.17
0.16902,107.82
0.16922,107.26
0.1694,107.9
0.16961,108.05
0.16981,107.33
0.17001,107.28
0.17019,107.55
0.17041,107.37
0.1706,107.1
0.17077,106.63
0.17102,107.27
0.17122,107.16
0.17143,107.18
0.17163,107.26
0.17182,106.67
0.17204,106.87
0.17222,106.36
0.17241,107.05
0.17262,106.55
0.17281,106.7
0.17301,106.97
0.17321,106.54
0.17342,106.42
0.17359,106.38
0.17381,106.94
0.17402,107.22
0.1742,107.12
0.17441,107.22
0.17464,107.02
0.17481,106.71
0.17505,107.05
0.17523,106.91
0.17543,106.88
0.17564,106.29
0.17583,106.39
0.17602,106.18
0.17623,106.06
0.17639,105.52
0.17661,106.12
0.17681,105.71
0.17699,105.26
0.17719,105.52
0.17743,105.54
0.1776,104.66
0.17782,105.13
0.17801,104.87
0.17821,105.31
0.17841,105.08
0.17863,105.31
0.17881,104.99
0.179,104.22
0.17919,104.19
0.17937,104.03
0.17961,104.51
0.17979,103.95
0.17999,103.95
0.1802,103.61
0.18039,103.52
0.1806,103.76
0.18081,103.68
0.18101,103.7
0.18121,103.61
0.18141,103.45
0.18159,103.22
0.18179,102.73
0.18199,102.57
0.18217,102.57
0.18239,102.97
0.18262,103.43
0.18279,103.23
0.18301,103.62
0.18321,103.42
0.1834,103.78
0.18363,103.45
0.18383,103.31
0.18402,102.92
0.18421,102.61
0.18441,102.76
0.18459,102.65
0.1848,102.63
0.18499,102.63
0.18517,102.26
0.1854,102.46
0.18558,102.26
0.18579,102.68
0.18601,102.58
0.1862,102.49
0.18642,103.04
0.18662,102.65
0.18679,103.34
0.18703,103.5
0.18724,103.26
0.18741,102.63
0.18761,102.55
0.18783,102.49
0.18798,102.22
0.1882,102.45
0.18841,102.08
0.18858,101.63
0.1888,101.92
0.18901,101.64
0.18919,101.74
0.18933,103.21
0.18961,105.64
0.18981,105.89
0.19,105.98
0.19024,105.79
0.19043,103.66
0.19061,102.57
0.1908,102.25
0.191,102.27
0.1912,101.69
0.1914,101.32
0.19159,101.16
0.19181,101.2
0.192,100.66
0.19222,100.68
0.19242,100.11
0.19261,100.14
0.19281,100.01
0.19302,100.09
0.1932,100.05
0.1934,99.831
0.19361,100.07
0.19378,99.479
0.19399,99.921
0.19418,99.836
0.19437,99.799
0.1946,99.517
0.19477,99.686
0.195,100.07
0.19522,99.166
0.19541,98.301
0.1956,98.621
0.19582,98.31
0.196,98.466
0.19619,98.702
0.19641,98.971
0.1966,98.683
0.19679,98.662
0.197,98.97
0.19719,98.731
0.19739,98.8
0.19759,98.497
0.19781,98.694
0.198,98.197
0.1982,98.678
0.19843,98.572
0.19862,98.222
0.19883,97.829
0.19901,98.02
0.19921,97.821
0.19941,97.969
0.19957,97.677
0.19981,98.199
0.20001,97.873
0.20021,97.921
0.2004,97.272
0.20061,97.685
0.20082,97.766
0.20103,97.127
0.20123,97.46
0.20142,97.337
0.20163,97.645
0.20182,97.783
0.20203,97.364
0.20224,96.96
0.20242,96.614
0.20261,96.51
0.20281,96.987
0.20298,96.782
0.20321,97.151
0.20342,96.772
0.2036,96.775
0.20381,96.965
0.20402,97.406
0.20421,97.285
0.20444,96.767
0.20463,96.294
0.20481,96.381
0.20502,97.629
0.20524,96.973
0.20542,95.647
0.2056,95.648
0.20577,96.041
0.20599,97.001
0.20622,96.829
0.2064,95.832
0.2066,96.119
0.20679,96.464
0.207,97.099
0.20722,96.519
0.20743,96.693
0.20758,96.411
0.20782,97.208
0.20804,96.96
0.2082,96.18
0.20839,96.751
0.20861,97.057
0.20879,96.754
0.20901,96.234
0.20918,95.447
0.20937,95.693
0.20957,95.943
0.20978,96.501
0.21001,96.426
0.21021,95.492
0.2104,95.662
0.21059,95.522
0.21082,96.226
0.211,96.283
0.21123,96.509
0.21142,95.618
0.21161,95.437
0.21182,95.557
0.21201,95.162
0.21219,95.638
0.2124,95.632
0.21258,95.768
0.21278,96.186
0.21301,95.684
0.2132,94.905
0.21338,94.482
0.21358,94.691
0.21379,95.84
0.21401,95.374
0.21422,94.989
0.2144,94.753
0.2146,94.758
0.21482,95.053
0.21502,94.967
0.21522,94.747
0.21542,94.523
0.2156,94.956
0.21582,94.726
0.21601,94.683
0.21621,94.667
0.21639,94.504
0.21662,94.522
0.21679,93.587
0.217,93.534
0.21719,93.295
0.2174,93.515
0.21761,93.317
0.21782,92.896
0.21801,93.306
0.21823,93.259
0.21842,93.251
0.21862,93.104
0.21884,93.213
0.21901,93.36
0.21921,92.786
0.21942,92.566
0.21959,92.406
0.21976,92.948
0.22,93.834
0.2202,93.624
0.22041,92.787
0.22059,92.676
0.22078,93.257
0.22101,93.29
0.22123,93.069
0.2214,93.296
0.22162,93.595
0.22184,93.665
0.22202,92.773
0.22222,92.88
0.2224,93.607
0.2226,93.807
0.22285,93.668
0.22301,92.592
0.2232,92.762
0.22338,92.653
0.22357,93.281
0.22379,93.529
0.224,93.01
0.22417,93.172
0.22438,93.209
0.22459,93.214
0.22479,93.853
0.22501,92.994
0.22521,92.589
0.22539,92.566
0.2256,93.033
0.22582,93.276
0.226,92.883
0.22622,92.738
0.22642,92.242
0.2266,92.414
0.22679,92.431
0.22702,93.46
0.22721,92.921
0.22743,92.233
0.22762,92.039
0.22779,92.165
0.22801,92.814
0.22821,92.652
0.22838,91.529
0.2286,92.27
0.22879,91.999
0.22897,92.593
0.22921,92.354
0.22939,92.176
0.22957,92.385
0.22981,92.13
0.22998,91.759
0.23017,91.87
0.2304,92.414
0.2306,91.766
0.23078,91.47
0.23099,91.949
0.23118,92.196
0.23141,92.182
0.23163,91.438
0.23179,91.423
0.232,91.895
0.23223,91.703
0.23241,91.179
0.2326,90.688
0.23281,91.877
0.23299,92.161
0.23323,92.474
0.23344,91.939
0.23359,91.264
0.23381,92.135
0.23402,92.33
0.23422,92.085
0.23445,91.214
0.23462,90.299
0.2348,90.454
0.23499,90.705
0.2352,91.299
0.2354,91.122
0.23563,90.418
0.23581,90.245
0.23598,90.535
0.23619,91.081
0.2364,90.806
0.23659,90.422
0.23678,90.352
0.23697,91.548
0.23721,91.764
0.23741,91.293
0.2376,90.304
0.23781,90.007
0.238,90.272
0.23818,90.518
0.23844,90.51
0.23863,89.95
0.23878,89.896
0.239,90.679
0.23922,90.893
0.2394,90.123
0.23963,89.828
0.2398,89.667
0.24,90.544
0.24024,89.985
0.24039,90.021
0.24061,90.497
0.24082,89.746
0.24101,89.743
0.24121,89.963
0.24142,90.083
0.2416,90.096
0.24182,89.572
0.24204,89.493
0.24221,89.585
0.24242,89.564
0.24262,89.763
0.24281,89.917
0.24304,89.998
0.24322,89.75
0.24343,90.186
0.24365,89.528
0.24381,89.418
0.24403,89.564
0.24423,89.098
0.24442,89.363
0.2446,89.35
0.24484,89.246
0.24503,89.159
0.24521,89.38
0.24544,89.83
0.24563,89.3
0.24584,88.696
0.24604,88.122
0.24621,88.779
0.24642,89.64
0.24664,89.421
0.24682,89.287
0.24702,89.037
0.24724,89.075
0.24743,88.552
0.24763,88.269
0.24783,88.844
0.248,89.283
0.24823,89.434
0.24845,89.032
0.24864,88.229
0.24883,87.97
0.24902,88.655
0.24923,88.969
0.24943,88.332
0.24964,88.655
0.24984,88.45
0.25003,88.073
0.25024,88.581
0.25043,88.432
0.25066,87.703
0.25079,87.687
0.25101,88.84
0.25124,88.872
0.25143,88.395
0.25161,88.222
0.25184,87.741
0.25203,87.406
0.2522,87.925
0.25244,88.108
0.25262,87.608
0.25282,87.117
0.25304,87.633
0.25318,88.113
0.25344,88.954
0.25365,88.088
0.25382,87.28
0.254,87.087
0.25422,87.585
0.2544,88.012
0.25461,87.667
0.25482,87.848
0.25503,87.358
0.25523,86.515
0.25541,86.853
0.25559,87.782
0.25582,88.065
0.25602,87.861
0.25621,87.498
0.25642,87.403
0.25661,87.391
0.25681,87.418
0.25702,86.991
0.25722,87.044
0.2574,86.924
0.25762,86.353
0.25781,86.703
0.258,87.059
0.25823,87.101
0.25841,86.764
0.2586,86.626
0.25885,86.84
0.25901,86.62
0.25923,86.419
0.25942,86.847
0.25962,86.836
0.25983,86.922
0.26005,86.306
0.26022,86.129
0.26042,86.687
0.26064,87.389
0.26081,87.056
0.26104,86.864
0.26123,86.503
0.26141,86.298
0.26163,86.477
0.26184,85.873
0.26202,86.096
0.26221,86.207
0.26243,86.59
0.2626,86.3
0.26281,86.215
0.26304,86.211
0.26319,85.658
0.26341,85.965
0.26361,85.763
0.26378,85.678
0.26399,86.384
0.26418,86.119
0.26441,86.228
0.26462,85.502
0.2648,85.263
0.26499,85.553
0.26519,85.826
0.26544,86.091
0.26562,85.232
0.26582,85.51
0.26601,85.876
0.26622,85.991
0.26644,85.545
0.26659,85.362
0.2668,85.784
0.26701,85.6
0.26719,85.206
0.26738,85.584
0.26759,85.439
0.26778,85.511
0.26799,85.553
0.26818,85.294
0.2684,85.201
0.2686,84.55
0.26882,84.69
0.26899,84.984
0.26921,85.335
0.26942,85.434
0.26961,85.245
0.26981,84.738
0.26999,84.826
0.27018,85.229
0.27039,85.273
0.27058,84.897
0.27078,85.379
0.271,85.091
0.27122,84.595
0.27139,84.364
0.27162,84.903
0.27182,84.731
0.27199,84.782
0.27224,84.892
0.27241,84.213
0.27259,84.182
0.2728,84.253
0.27301,84.55
0.27318,84.179
0.27338,84.134
0.27359,84.762
0.27381,85.107
0.27403,84.877
0.27424,84.712
0.27442,83.774
0.27463,84.068
0.27481,83.663
0.27502,83.937
0.27522,84.044
0.27539,84.039
0.27561,83.987
0.2758,83.788
0.27598,84.308
0.2762,83.722
0.27641,83.27
0.27657,83.65
0.2768,84.452
0.277,84.645
0.27721,84.564
0.27743,83.894
0.27762,83.749
0.27782,84.33
0.27804,84.117
0.2782,83.517
0.2784,83.637
0.2786,83.393
0.27879,83.89
0.27898,83.7
0.27921,83.569
0.27939,83.421
0.27958,83.665
0.27982,83.614
0.28001,83.226
0.28021,83.055
0.28044,82.512
0.28058,82.676
0.28078,83.601
0.281,83.661
0.28119,83.261
0.28138,83.138
0.28159,83.466
0.28177,84.248
0.282,83.997
0.28222,83.284
0.28239,82.754
0.28262,83.1
0.28282,82.827
0.28298,83.014
0.28323,83.225
0.28342,82.817
0.28359,82.652
0.28381,82.498
0.28399,81.797
0.28416,82.02
0.28437,82.318
0.28461,82.466
0.28478,81.877
0.28499,82.289
0.28519,82.982
0.28541,82.427
0.28562,82.264
0.28582,82.073
0.286,82.686
0.28625,82.728
0.28643,82.638
0.28663,82.066
0.28683,81.864
0.28702,82.155
0.28721,82.499
0.28744,82.486
0.28762,82.177
0.28782,82.14
0.28803,82.178
0.28821,81.96
0.2884,81.788
0.28862,82.019
0.2888,81.467
0.28899,81.908
0.28922,82.112
0.28942,82.003
0.28962,81.408
0.28981,81.549
0.29001,81.865
0.29023,81.566
0.29045,81.661
0.29061,81.69
0.29084,81.943
0.29104,81.409
0.29122,81.632
0.29144,81.84
0.29165,81.668
0.29183,81.525
0.29205,81.723
0.29225,81.631
0.29243,81.543
0.29265,81.158
0.29285,81.198
0.29302,80.844
0.29326,81.187
0.29343,81.008
0.29362,81.18
0.29383,81.079
0.29403,80.908
0.2942,80.963
0.29442,81.034
0.29462,81.152
0.2948,81.145
0.29501,80.947
0.2952,80.789
0.29539,80.441
0.29563,80.801
0.29582,80.614
0.29599,80.521
0.29622,81.027
0.29641,80.331
0.29661,80.655
0.29682,80.44
0.29701,80.472
0.2972,80.726
0.29743,81.008
0.29761,80.731
0.29781,80.393
0.29803,80.404
0.29822,80.465
0.29842,80.347
0.29864,80.833
0.29882,80.361
0.29904,80.657
0.29922,80.697
0.29942,80.977
0.29963,80.603
0.29984,80.584
0.30002,80.615
0.30025,80.379
0.30043,80.462
0.30061,80.359
0.30084,80.388
0.30103,80.193
0.30123,80.303
0.30144,79.973
0.30162,79.849
0.30183,80.208
0.30204,79.834
0.30225,79.868
0.30244,79.791
0.30263,79.563
0.30284,79.509
0.30301,79.682
0.30323,79.639
0.30342,79.651
0.3036,79.209
0.30382,79.657
0.304,79.802
0.30422,80.111
0.30443,79.849
0.30462,79.623
0.30481,80.003
0.30504,79.698
0.30522,79.368
0.3054,79.118
0.30561,79.214
0.30581,79.222
0.306,79.038
0.30621,79.1
0.30639,79.412
0.30659,79.548
0.30683,79.67
0.30701,79.075
0.30721,79.019
0.3074,78.821
0.30759,79.681
0.30785,79.372
0.30804,78.671
0.30821,78.721
0.30841,79.226
0.30865,79.552
0.30883,79.414
0.30907,78.398
0.30923,77.668
0.30942,78.118
0.30963,78.854
0.30983,79.18
0.31003,79.935
0.31026,79.456
0.31045,78.321
0.31063,78.412
0.31081,78.665
0.31105,79.205
0.31124,78.193
0.31142,78.719
0.31161,78.688
0.31179,78.502
0.31204,78.313
0.3122,78.035
0.31239,78.628
0.3126,79.18
0.31282,78.787
0.313,78.171
0.3132,77.598
0.3134,78.148
0.31358,78.345
0.31382,78.824
0.31403,78.542
0.31422,77.763
0.31443,77.672
0.3146,77.652
0.31479,78.495
0.31504,78.589
0.31523,78.266
0.31542,77.672
0.31562,77.637
0.3158,78.474
0.31602,78.147
0.31622,77.516
0.31639,77.753
0.31659,77.635
0.31681,77.466
0.31696,77.728
0.31717,78.346
0.3174,78.262
0.31758,77.54
0.31779,77.139
0.31799,77.285
0.31818,77.847
0.31841,77.93
0.31863,77.483
0.3188,76.878
0.319,77.178
0.31922,78.002
0.3194,78.163
0.31964,77.769
0.31982,77.077
0.31999,76.653
0.3202,77.102
0.32037,77.679
0.32058,78.449
0.3208,77.805
0.32102,77.471
0.32118,76.619
0.32138,76.751
0.32159,77.546
0.32178,77.695
0.32203,77.55
0.32224,76.672
0.32243,76.402
0.32262,76.467
0.3228,77.393
0.323,78.027
0.32321,77.753
0.3234,77.431
0.32358,77.328
0.32384,76.748
0.324,76.173
0.32418,76.008
0.3244,76.665
0.32457,77.199
0.32483,77.801
0.32504,77.047
0.32524,76.935
0.32544,76.55
0.32562,76.321
0.32582,77.146
0.32602,76.847
0.32623,76.195
0.32642,76.245
0.32658,76.404
0.3268,77.147
0.327,77.156
0.3272,76.61
0.32744,75.875
0.32759,75.018
0.32778,75.76
0.32799,76.814
0.32821,77.761
0.32843,77.146
0.32864,76.663
0.32884,75.791
0.32902,75.071
0.32921,75.651
0.32941,76.602
0.32962,76.673
0.32985,76.579
0.33001,75.623
0.3302,75.246
0.33037,75.62
0.33058,76.818
0.3308,77.072
0.33101,76.076
0.3312,75.463
0.33139,74.984
0.33159,75.846
0.3318,76.351
0.33204,76.295
0.33226,75.208
0.33239,74.924
0.33259,76.129
0.33281,76.634
0.33299,76.623
0.33324,75.986
0.33341,75.255
0.33358,74.92
0.33375,75.131
0.33399,76.561
0.33418,76.125
0.33441,75.459
0.33461,75.101
0.33478,74.608
0.33499,75.435
0.3352,75.741
0.33542,76.013
0.33565,74.982
0.33582,74.437
0.336,74.304
0.33618,75.375
0.33642,76.233
0.33661,75.979
0.33683,75.572
0.33702,75.265
0.33721,74.536
0.3374,74.342
0.33757,74.914
0.33777,75.489
0.338,75.539
0.33822,74.85
0.33841,74.28
0.33858,73.9
0.33879,74.871
0.33899,75.252
0.33922,75.545
0.33943,75.093
0.33959,75.054
0.33985,75.111
0.34004,74.489
0.34021,74.289
0.34043,74.801
0.34062,74.845
0.34081,74.967
0.34104,74.838
0.34121,74.495
0.34138,74.582
0.34161,74.721
0.34182,74.516
0.34202,73.682
0.34221,74.137
0.3424,75.137
0.34263,75.836
0.34287,75.086
0.34304,74.463
0.34325,74.505
0.34344,74.177
0.34362,74.508
0.34385,74.595
0.34404,73.807
0.34419,74.078
0.34439,74.673
0.34462,74.982
0.34482,74.63
0.34502,74.211
0.34521,74.266
0.34539,75.093
0.34561,75.275
0.34586,74.341
0.34605,73.579
0.34619,73.33
0.34644,75.284
0.34664,75.381
0.34683,75.035
0.34705,74.491
0.34722,73.86
0.34739,73.722
0.3476,74.269
0.3478,74.068
0.34799,74.263
0.3482,74.27
0.34841,74.031
0.34859,73.435
0.3488,73.989
0.34901,74.373
0.34922,74.371
0.34943,74.274
0.34962,73.782
0.34984,73.399
0.35,72.91
0.3502,73.803
0.3504,74.062
0.35062,74.256
0.35081,73.933
0.35101,73.267
0.3512,72.595
0.35138,72.474
0.35154,73.04
0.35177,74.304
0.35199,74.377
0.35222,73.617
0.35242,72.518
0.35259,72.24
0.35279,72.876
0.353,73.254
0.3532,73.625
0.35341,73.221
0.35363,73.251
0.35382,72.184
0.35399,72.315
0.35421,73.466
0.35439,73.716
0.35459,73.419
0.35481,73.247
0.355,72.818
0.3552,71.825
0.35539,71.99
0.35556,72.956
0.35577,73.524
0.35601,73.824
0.35622,73.467
0.35642,72.955
0.35664,72.531
0.35682,72.006
0.35701,72.185
0.35723,72.955
0.3574,72.945
0.35763,72.762
0.35785,72.298
0.35802,71.788
0.35821,72.013
0.3584,73.218
0.35858,73.883
0.35882,73.66
0.35902,72.763
0.35917,72.078
0.35941,72.722
0.3596,72.293
0.35979,72.772
0.36,72.876
0.36022,72.883
0.3604,72.587
0.36063,72.292
0.36084,71.475
0.361,71.165
0.36119,72.027
0.36141,73.039
0.36161,73.281
0.36185,72.694
0.36205,71.778
0.36223,71.252
0.3624,71.809
0.36262,72.597
0.36283,72.588
0.36305,71.942
0.36325,71.951
0.36342,71.161
0.36361,71.421
0.36384,72.184
0.36402,72.185
0.36424,72.533
0.36446,72.013
0.36464,71.492
0.36482,71.178
0.36501,71.894
0.36522,72.465
0.36544,71.831
0.36566,71.212
0.3658,70.874
0.36603,71.713
0.36623,72.547
0.36642,72.339
0.36666,71.814
0.36685,71.004
0.36703,71.067
0.36723,71.332
0.36742,72.187
0.36762,72.625
0.36783,72.17
0.36805,71.479
0.36821,70.838
0.36842,71.209
0.36862,71.857
0.36882,71.794
0.36904,71.381
0.36922,71.086
0.36939,71.259
0.36964,72.022
0.36985,71.038
0.37001,70.51
0.37021,70.768
0.37041,71.74
0.37061,71.271
0.37082,70.963
0.37102,70.788
0.3712,70.884
0.37142,70.901
0.3716,70.718
0.37179,71.447
0.37201,71.07
0.37223,70.92
0.3724,69.99
0.37259,69.724
0.37278,70.019
0.37297,70.861
0.37319,71.385
0.37341,71.46
0.3736,70.787
0.3738,70.718
0.37401,70.234
0.37419,70.25
0.37441,70.738
0.37462,70.979
0.37481,71.129
0.37506,70.196
0.37524,69.793
0.3754,69.678
0.3756,70.38
0.37582,71.182
0.37602,71.349
0.37622,70.952
0.37641,70.559
0.37664,69.909
0.37681,69.338
0.37695,69.779
0.37717,71.084
0.37741,71.106
0.37761,71.013
0.37778,70.156
0.37803,70.556
0.37818,70.167
0.37838,70.215
0.3786,70.507
0.37884,70.07
0.37902,69.596
0.37922,70.113
0.37939,70.8
0.37962,70.779
0.37982,70.106
0.38002,69.908
0.38021,69.666
0.38042,69.282
0.38057,69.478
0.38076,70.059
0.38101,70.72
0.38118,69.652
0.38138,69.754
0.3816,69.613
0.38181,69.857
0.38199,69.939
0.38222,70.281
0.38242,69.957
0.38259,69.704
0.38282,69.817
0.38299,69.818
0.3832,69.703
0.38343,69.107
0.38359,68.589
0.38376,69.368
0.38396,70.105
0.38421,70.531
0.38443,69.66
0.38461,68.884
0.38482,69.254
0.385,69.386
0.38523,69.588
0.38542,69.805
0.38563,69.382
0.38585,68.583
0.38599,68.526
0.3862,69.795
0.38643,70.125
0.38663,69.672
0.38682,69.017
0.387,68.97
0.38721,69.047
0.3874,68.971
0.38764,69.404
0.38785,69.185
0.38803,68.84
0.38825,69.353
0.38844,69.277
0.38863,69.625
0.38885,69.046
0.38905,68.32
0.38923,67.993
0.38938,68.691
0.3896,69.834
0.3898,69.546
0.39004,69.444
0.39022,68.667
0.39039,68.402
0.39063,68.983
0.39082,68.949
0.39103,69.239
0.39125,68.878
0.39142,68.291
0.39163,69.309
0.39183,69.038
0.39204,69.373
0.39223,69.033
0.39244,68.979
0.39262,68.214
0.3928,68.352
0.39299,68.943
0.39319,69.4
0.39343,69.282
0.39361,68.489
0.39381,68.466
0.39401,68.327
0.39421,68.154
0.39442,68.496
0.39461,68.157
0.39484,67.578
0.39502,67.32
0.39517,67.491
0.39541,69.103
0.39563,69.633
0.39585,69.367
0.39602,68.152
0.39621,67.592
0.39641,67.447
0.39659,67.429
0.39679,68.206
0.39697,68.486
0.39722,68.596
0.39742,67.836
0.39758,67.119
0.3978,67.627
0.398,67.998
0.3982,68.013
0.39844,68.063
0.39864,67.614
0.3988,67.579
0.39902,68.341
0.39922,68.72
0.39941,68.463
0.39963,68.396
0.39981,67.591
0.39999,67.627
0.40021,67.483
0.40041,67.276
0.40057,67.314
0.40076,68.035
0.40099,68.592
0.40121,68.271
0.40139,67.798
0.4016,68.282
0.40179,67.961
0.40203,67.907
0.40222,67.584
0.40239,67.673
0.40264,68.084
0.40281,67.674
0.40301,68.27
0.40325,68.089
0.40344,67.842
0.40363,67.311
0.40379,67.613
0.40403,67.958
0.4042,67.616
0.40442,67.638
0.4046,67.552
0.4048,67.52
0.40499,67.544
0.4052,67.396
0.40538,67.475
0.40563,67.558
0.4058,67.258
0.406,68.053
0.40621,67.883
0.40643,67.871
0.40661,67.248
0.40683,67.308
0.40703,67.231
0.40719,67.33
0.40742,67.621
0.40764,67.582
0.40784,67.363
0.40803,67.458
0.40825,67.194
0.40844,66.79
0.40862,66.398
0.4088,67.207
0.40899,67.784
0.40924,67.842
0.40943,66.941
0.4096,66.809
0.40981,66.702
0.41,66.769
0.4102,67.033
0.41039,67.033
0.41062,67.144
0.41081,66.541
0.41097,66.791
0.4112,67.146
0.41139,66.987
0.41159,66.71
0.4118,67.202
0.412,66.759
0.41219,66.794
0.41241,67.1
0.4126,67.205
0.4128,67.011
0.41302,66.661
0.41318,66.766
0.41338,66.934
0.41362,67.086
0.4138,66.616
0.414,66.832
0.41421,66.89
0.4144,66.839
0.41462,66.42
0.41481,65.676
0.41498,65.708
0.41518,66.817
0.41543,67.372
0.41562,67.041
0.41581,65.982
0.416,65.925
0.41619,66.116
0.4164,66.29
0.4166,66.55
0.4168,66.534
0.41701,66.349
0.41721,65.768
0.41739,66.059
0.41759,66.067
0.4178,66.423
0.41799,66.554
0.41819,66.511
0.41845,66.695
0.41861,66
0.41882,65.993
0.41904,66.009
0.41922,65.521
0.41943,65.757
0.41963,65.966
0.41984,66.251
0.42002,65.931
0.4202,66.088
0.4204,66.54
0.42059,65.975
0.42081,65.615
0.42098,65.251
0.42118,65.75
0.42142,65.855
0.42162,65.717
0.42182,65.439
0.42202,65.82
0.42222,65.949
0.42242,65.472
0.42259,65.538
0.4228,66
0.42299,65.875
0.4232,65.876
0.42338,65.162
0.42359,65.363
0.42379,65.653
0.42398,65.857
0.42422,66.017
0.42442,65.624
0.42462,65.33
0.42482,65.079
0.42503,65.187
0.42521,65.092
0.42539,65.189
0.42561,65.363
0.42578,64.816
0.42599,65.096
0.42621,65.192
0.4264,65.05
0.42659,65.382
0.42683,65.416
0.42701,65.254
0.42722,64.852
0.42743,65.051
0.42761,65.039
0.42782,65.188
0.42804,65.335
0.42822,65.15
0.42843,65.475
0.42864,65.144
0.42882,64.929
0.429,64.812
0.4292,65.07
0.42941,65.197
0.42961,65.059
0.42981,65.102
0.43002,65.396
0.4302,65.016
0.43044,65.28
0.43062,64.635
0.43084,64.998
0.43104,64.761
0.43124,65.13
0.43144,65.153
0.43163,64.867
0.43183,65.095
0.43201,64.757
0.43223,64.963
0.43241,64.877
0.43261,64.837
0.4328,65.016
0.43301,65.429
0.43324,65.327
0.43347,64.782
0.43364,63.982
0.43383,64.305
0.43404,64.558
0.43424,65.018
0.43442,65.114
0.43467,65.462
0.43486,64.143
0.43503,63.688
0.43524,63.948
0.43539,64.221
0.43559,64.896
0.43581,65.4
0.43601,65.483
0.43625,64.875
0.43645,63.549
0.43661,63.318
0.43679,63.665
0.43703,64.246
0.43724,64.58
0.43742,64.32
0.43764,64.517
0.43781,63.998
0.43802,64.471
0.43822,64.108
0.43841,64.104
0.4386,64.187
0.43879,64.05
0.43899,64.366
0.43917,64.746
0.43941,64.978
0.43963,64.201
0.43978,63.367
0.44001,63.516
0.4402,63.562
0.44039,64.013
0.44062,64.465
0.44081,64.403
0.441,64.427
0.44121,63.955
0.44142,64.132
0.4416,64.426
0.44182,64.95
0.44203,64.252
0.44221,63.777
0.44241,63.69
0.4426,63.8
0.44278,63.953
0.443,64.189
0.44318,64.428
0.44341,64.566
0.4436,63.564
0.4438,63.301
0.44398,63.372
0.4442,63.76
0.44442,63.827
0.4446,63.746
0.44481,63.633
0.44502,63.707
0.44522,63.775
0.44543,63.499
0.44563,63.732
0.44581,63.611
0.44601,63.607
0.44624,63.745
0.44641,63.752
0.44662,63.477
0.44681,63.405
0.44698,63.901
0.44719,64.305
0.44742,63.731
0.4476,63.033
0.44778,62.452
0.44799,62.771
0.44818,63.337
0.44839,64.015
0.44863,64.098
0.44884,63.113
0.44901,62.456
0.44922,62.604
0.44941,63.144
0.44961,63.229
0.44981,63.632
0.45004,63.755
0.45025,63.213
0.45044,62.278
0.45063,62.789
0.4508,62.754
0.45101,63.614
0.45121,63.815
0.45143,63.362
0.45163,62.648
0.4518,62.467
0.45199,62.795
0.4522,62.776
0.45238,63.002
0.45258,63.307
0.45281,63.542
0.45302,63.053
0.45321,62.315
0.4534,62.245
0.45359,62.455
0.45378,62.822
0.454,63.645
0.45423,63.598
0.45443,63.126
0.45461,62.402
0.45483,62.746
0.45501,62.652
0.45522,62.811
0.45542,62.757
0.45561,62.853
0.45583,62.926
0.45601,62.448
0.45622,62.688
0.45643,62.443
0.45663,62.33
0.4568,62.546
0.45701,63.067
0.45724,63.449
0.45746,62.837
0.45764,61.829
0.45783,61.934
0.45801,62.012
0.45823,62.585
0.45842,62.18
0.45863,62.418
0.45882,62.257
0.45904,62.383
0.45922,62.589
0.45944,62.68
0.45965,62.093
0.45983,61.709
0.46001,61.767
0.46022,62.01
0.4604,62.208
0.46062,62.14
0.46083,62.036
0.46101,62.683
0.46121,63.128
0.46145,62.807
0.46164,62.003
0.46182,61.096
0.46201,61.452
0.4622,61.641
0.46238,62.062
0.4626,62.647
0.46281,62.815
0.46302,61.949
0.46321,61.181
0.46341,61.752
0.46357,61.524
0.46381,62.224
0.46399,62.516
0.46418,62.619
0.46442,62.366
0.4646,61.514
0.46478,61.154
0.46499,61.306
0.46518,61.539
0.46536,61.902
0.46559,62.143
0.46582,62.339
0.466,61.394
0.4662,61.105
0.46638,61.169
0.46658,61.733
0.46678,61.857
0.46697,62.003
0.46721,62.181
0.46742,61.63
0.46761,61.201
0.46779,61.314
0.46798,61.374
0.4682,61.539
0.46839,61.39
0.46857,61.732
0.46881,62.155
0.469,61.524
0.4692,61.133
0.46939,61.004
0.46958,61.332
0.46979,61.234
0.46998,61.738
0.47019,61.989
0.47042,61.44
0.4706,60.814
0.47079,60.747
0.47099,61.094
0.4712,61.258
0.47137,61.526
0.4716,61.987
0.47183,61.342
0.47202,60.799
0.4722,60.663
0.47242,60.794
0.47263,61.183
0.47279,61.231
0.47301,61.934
0.47323,61.639
0.47343,60.8
0.47364,60.326
0.47381,60.43
0.47402,60.92
0.47422,61.484
0.47446,61.426
0.47464,60.303
0.47483,60.184
0.47501,60.617
0.4752,61.237
0.47541,61.619
0.47564,61.423
0.47583,60.595
0.47604,60.581
0.47622,60.261
0.47641,60.649
0.47661,60.577
0.47679,60.965
0.47698,61.03
0.47723,60.741
0.4774,59.837
0.4776,60.111
0.4778,60.396
0.47798,60.894
0.47818,61.351
0.47841,61.322
0.47862,60.668
0.47881,60.175
0.47901,59.867
0.47922,60.298
0.4794,60.754
0.47962,61.213
0.47982,61.47
0.48005,60.842
0.48026,60.049
0.48041,59.402
0.4806,60.347
0.48081,61.169
0.481,61.496
0.48122,61.3
0.48143,60.241
0.48161,59.4
0.48178,59.316
0.48201,60.017
0.48219,60.618
0.48238,61.141
0.48264,61.066
0.48283,60.108
0.48303,59.673
0.48324,59.745
0.48344,59.461
0.48362,59.912
0.48379,60.3
0.48402,61.37
0.48421,60.925
0.48443,60.244
0.48462,59.209
0.48478,59.118
0.485,59.564
0.48519,59.717
0.48538,60.437
0.48561,61.052
0.48584,60.496
0.48604,59.803
0.48621,59.07
0.48642,59.373
0.48658,59.454
0.48678,60.295
0.48699,60.767
0.48719,60.133
0.4874,59.36
0.4876,58.995
0.4878,59.44
0.488,59.517
0.48821,60.121
0.48842,60.35
0.48862,60.224
0.48886,59.362
0.48902,58.589
0.48921,58.527
0.48941,58.78
0.48955,59.726
0.48979,60.994
0.49001,60.714
0.49022,59.926
0.49043,58.928
0.49062,58.123
0.49081,58.364
0.49098,59.105
0.49123,60.418
0.49144,60.508
0.49164,59.674
0.49187,59.287
0.49203,59.174
0.49221,59.269
0.49243,59.683
0.49263,59.704
0.49284,59.223
0.49303,58.816
0.49321,58.785
0.49338,59.241
0.49361,60.191
0.49383,60.398
0.49405,60.44
0.49427,59.622
0.49446,59.031
0.49464,58.537
0.49484,58.163
0.49501,59.157
0.49521,60.013
0.49544,60.164
0.49562,59.743
0.49582,59.248
0.49602,58.541
0.49621,58.755
0.4964,59.467
0.49663,59.764
0.49684,58.875
0.49706,58.438
0.49721,58.326
0.49741,59.396
0.49763,59.907
0.49785,59.684
0.49804,58.985
0.49821,58.884
0.49841,59.008
0.49861,59.032
0.4988,58.858
0.49903,58.089
0.4992,57.918
0.49938,58.897
0.49963,59.977
0.49985,59.612
0.50002,59.102
0.50023,58.654
0.50043,58.602
0.5006,57.968
0.50081,57.839
0.50098,57.961
0.50117,59.101
0.50139,59.251
0.50159,59.217
0.50182,58.854
0.50202,58.101
0.50221,57.511
0.50238,57.934
0.50261,58.893
0.50281,58.906
0.50302,59.234
0.5032,59.068
0.50342,58.826
0.50359,58.352
0.50381,58.563
0.504,58.156
0.5042,58.237
0.50437,57.674
0.5046,58.265
0.50479,58.669
0.505,58.555
0.50521,58.259
0.5054,57.668
0.50563,57.44
0.5058,57.924
0.50601,59.063
0.50622,59.172
0.50646,58.724
0.50664,57.757
0.5068,57.005
0.50698,57.216
0.50716,58.157
0.5074,58.791
0.50763,58.815
0.50781,58.705
0.50803,58.973
0.50825,58.309
0.50843,57.94
0.50864,57.614
0.50882,57.578
0.50901,58.125
0.50919,58.326
0.50943,58.478
0.50961,58.122
0.5098,58.105
0.51001,57.829
0.51021,57.616
0.51038,57.722
0.51059,58.569
0.51084,58.579
0.51102,58.134
0.51123,57.99
0.51143,58.118
0.51163,57.824
0.51184,57.646
0.51201,57.334
0.51219,57.496
0.51239,57.812
0.51258,57.985
0.51281,58.119
0.51299,57.627
0.51321,57.822
0.5134,57.685
0.51361,57.563
0.51384,57.529
0.51402,56.917
0.51422,56.737
0.51441,57.351
0.51459,57.947
0.51482,58.058
0.51502,57.528
0.51521,57.83
0.5154,57.236
0.51563,56.975
0.51578,56.603
0.51597,57.055
0.51619,57.38
0.51638,57.516
0.51661,57.915
0.5168,57.664
0.51701,57.209
0.51719,56.781
0.51742,57.009
0.51761,57.132
0.51781,57.034
0.51803,57.524
0.51822,57.643
0.51842,57.461
0.51863,57.528
0.51879,57.002
0.519,57.021
0.51921,56.795
0.5194,56.873
0.5196,56.832
0.5198,57.239
0.52003,57.566
0.52022,57.505
0.52045,57.156
0.52066,56.29
0.52082,56.177
0.52102,56.952
0.52122,57.219
0.52142,57.771
0.52164,57.787
0.52184,57.123
0.52202,56.408
0.52221,56.625
0.52243,57.057
0.52264,56.761
0.52285,56.804
0.52304,57.096
0.52325,57.234
0.52347,56.515
0.52362,56.725
0.52386,57.13
0.52403,56.612
0.52426,56.534
0.52442,56.453
0.5246,56.848
0.52481,57.303
0.525,57.005
0.52523,57.086
0.52545,56.495
0.52563,56.11
0.52583,56.191
0.52602,56.429
0.52625,56.699
0.52645,56.292
0.52663,56.498
0.5268,56.543
0.52705,56.54
0.52724,55.91
0.52741,56.071
0.52761,56.36
0.52781,56.847
0.52799,56.663
0.52822,56.672
0.52842,55.877
0.52859,55.777
0.5288,56.32
0.52902,56.688
0.52923,56.471
0.52943,56.248
0.52964,56.253
0.52982,56.153
0.53002,56.498
0.53023,56.606
0.53043,56.565
0.53063,56.298
0.53081,56.227
0.53101,56.19
0.53122,56.139
0.5314,55.995
0.53161,56.514
0.5318,56.284
0.532,56.425
0.53218,56.388
0.5324,56.224
0.53259,55.797
0.5328,55.968
0.53299,56.057
0.53319,56.075
0.53342,56.356
0.53362,55.981
0.53381,56.387
0.53403,56.165
0.53421,55.849
0.53442,55.583
0.53462,55.722
0.5348,56.014
0.535,56.246
0.53522,56.34
0.5354,56.42
0.5356,55.967
0.5358,56.119
0.53598,56.101
0.5362,56.428
0.5364,55.909
0.53657,55.689
0.53679,55.943
0.53699,55.709
0.53717,56.116
0.5374,56.008
0.5376,55.944
0.53781,55.732
0.53798,55.661
0.53823,55.718
0.5384,55.521
0.53862,55.542
0.53883,55.578
0.53899,55.468
0.53923,56.021
0.53942,55.523
0.53963,55.679
0.53981,55.175
0.54003,55.376
0.54022,55.644
0.54041,55.697
0.54065,55.728
0.54082,55.319
0.54102,55.31
0.54121,55.391
0.54141,55.438
0.5416,55.276
0.5418,55.092
0.54201,55.037
0.54219,55.141
0.5424,55.189
0.54263,55.282
0.5428,54.879
0.54299,55.138
0.54319,55.145
0.54339,55.387
0.5436,55.043
0.54379,55.161
0.54399,55.307
0.54419,55.202
0.5444,55.189
0.54459,55.214
0.5448,55.162
0.54501,55.191
0.54522,55.036
0.5454,54.818
0.54561,55.385
0.54582,55.525
0.54602,55.246
0.54623,55.024
0.5464,54.987
0.54662,54.978
0.54683,54.904
0.54703,55.055
0.54722,55.229
0.54745,55.163
0.54762,55.09
0.54785,55.025
0.54804,54.558
0.54824,54.893
0.54842,54.921
0.54865,55.205
0.54882,55.215
0.54902,55.345
0.54924,55.374
0.54944,55.157
0.54963,54.892
0.54982,54.793
0.55003,54.991
0.55024,55.476
0.55045,55.005
0.55064,55.004
0.55084,54.636
0.55103,54.628
0.55124,54.584
0.55141,54.64
0.55163,54.981
0.55184,55.067
0.55202,54.797
0.55225,55.103
0.55244,54.531
0.55263,54.489
0.55282,54.7
0.55305,54.881
0.55322,54.606
0.55342,54.539
0.55363,54.636
0.55383,54.284
0.55402,54.394
0.55425,54.432
0.55444,54.533
0.55463,54.34
0.55484,54.686
0.55504,54.741
0.55522,55.253
0.55545,55.393
0.55565,54.764
0.55585,53.864
0.55605,54
0.55623,54.026
0.55641,54.175
0.55664,54.785
0.55684,54.212
0.55702,54.264
0.55721,54.259
0.55742,54.683
0.55763,54.325
0.55783,54.108
0.55802,54.077
0.55819,54.871
0.55841,55.161
0.55864,54.794
0.55883,53.701
0.55899,53.646
0.55921,54.251
0.5594,54.66
0.55959,54.708
0.55981,55.065
0.56001,54.495
0.56021,53.757
0.5604,53.338
0.56058,53.455
0.5608,53.84
0.56101,53.956
0.56121,54.172
0.5614,54.291
0.56162,54.859
0.56186,54.047
0.56202,53.079
0.56221,53.259
0.56241,53.729
0.56259,54.241
0.56281,55.124
0.56304,54.642
0.56322,53.799
0.56339,53.427
0.5636,53.699
0.56377,53.799
0.56398,54.374
0.56417,54.681
0.56438,54.609
0.56461,54.18
0.5648,53.295
0.56498,53.165
0.56519,53.56
0.5654,54.02
0.56561,54.084
0.56582,53.836
0.56603,53.664
0.56622,53.553
0.56641,53.389
0.56663,53.625
0.56682,53.654
0.56701,54.322
0.56722,54.339
0.56743,53.857
0.56759,53.529
0.5678,53.786
0.568,53.92
0.56816,53.964
0.5684,54.444
0.56863,53.883
0.56882,53.011
0.56902,52.71
0.56921,53.039
0.56942,53.624
0.56961,53.968
0.56982,54.502
0.57004,54.347
0.57026,53.541
0.57043,52.977
0.57062,52.808
0.57081,53.338
0.571,53.341
0.57122,53.887
0.57141,53.597
0.57159,53.686
0.57179,54.409
0.57201,54.216
0.57226,53.857
0.57245,52.766
0.57261,52.282
0.57284,52.797
0.57302,53.101
0.57322,53.682
0.57344,54.279
0.57365,53.997
0.57386,53.261
0.57403,52.456
0.57421,52.795
0.5744,53.195
0.57461,53.842
0.57482,53.975
0.57504,53.868
0.57526,52.954
0.57543,52.339
0.57564,52.521
0.57582,52.664
0.57604,53.503
0.57623,53.999
0.57645,54.193
0.57667,53.644
0.57684,52.844
0.57703,52.835
0.57721,52.959
0.5774,53.151
0.5776,54.055
0.5778,54.068
0.57805,53.861
0.57822,52.974
0.57842,52.946
0.57861,52.939
0.57879,53.238
0.57899,53.899
0.57921,54.464
0.57944,54.271
0.57966,53.23
0.57985,52.46
0.58003,52.362
0.5802,52.425
0.58041,53.321
0.5806,53.81
0.58084,54.053
0.58103,53.671
0.58123,52.698
0.58139,52.223
0.58161,52.347
0.58178,52.728
0.58196,53.436
0.5822,53.87
0.58242,53.182
0.58261,52.223
0.58279,52.142
0.58298,52.502
0.58318,53.029
0.58341,53.581
0.58362,53.405
0.58384,53.215
0.58404,52.291
0.58422,51.91
0.58439,51.917
0.5846,52.599
0.5848,53.519
0.58502,53.627
0.58525,53.551
0.58544,52.421
0.58561,51.791
0.58581,51.721
0.58598,52.247
0.58617,52.929
0.58637,53.6
0.58659,53.683
0.58683,53.333
0.58704,52.469
0.58722,51.632
0.58741,51.522
0.5876,51.923
0.58779,52.392
0.588,53.508
0.58823,53.626
0.58844,53.159
0.58865,52.435
0.58885,51.426
0.58905,51.557
0.58922,51.58
0.58942,52.215
0.58961,52.433
0.58979,53.343
0.59002,53.667
0.59024,53.316
0.59044,52.597
0.59063,51.927
0.59081,51.616
0.59098,51.883
0.59117,52.603
0.59139,53.232
0.59158,53.342
0.5918,53.405
0.59204,52.662
0.59221,51.768
0.59238,51.491
0.59259,51.825
0.59279,52.323
0.59299,53.007
0.59322,53.453
0.59341,53.038
0.59363,52.488
0.59383,51.771
0.594,51.387
0.59422,51.593
0.5944,51.875
0.5946,52.213
0.5948,53.045
0.59502,53.129
0.59525,52.824
0.59544,51.776
0.59561,51.245
0.59582,51.639
0.59598,52.134
0.59621,53.298
0.59642,53.333
0.59663,53.132
0.59684,52.321
0.59703,51.546
0.59721,51.308
0.59739,51.305
0.59759,51.855
0.59779,52.921
0.59802,53.092
0.59824,52.745
0.5984,51.666
0.59859,51.488
0.5988,51.684
0.59897,52.113
0.59918,52.415
0.59939,52.691
0.59962,52.594
0.5998,51.868
0.60002,51.854
0.60023,52.046
0.60041,52.518
0.60062,52.365
0.60084,52.174
0.60105,51.345
0.60122,51.065
0.60143,51.346
0.60161,51.799
0.60179,52.571
0.60204,53.074
0.60223,52.346
0.60243,52.071
0.60262,51.39
0.6028,51.352
0.60299,51.545
0.60317,51.786
0.60339,52.294
0.60363,51.807
0.60381,51.029
0.60398,50.959
0.60417,51.822
0.6044,52.621
0.60463,52.735
0.60484,52.058
0.60504,51.587
0.60524,50.721
0.60539,50.498
0.60555,51.003
0.60577,52.398
0.60598,52.744
0.6062,52.758
0.60643,52.406
0.60663,51.719
0.60684,51.088
0.60703,50.698
0.60721,51.089
0.60738,51.689
0.6076,52.78
0.60781,52.688
0.60801,52.318
0.60821,51.874
0.60845,51.49
0.60864,50.449
0.60881,50.408
0.60902,51.135
0.60923,52.121
0.60944,52.124
0.60967,52.262
0.60982,51.428
0.61005,51.795
0.61025,51.329
0.61041,50.939
0.61061,51.035
0.61079,51.389
0.61102,52.28
0.61123,52.039
0.61145,51.734
0.61167,50.951
0.61186,50.6
0.61206,50.679
0.61224,50.839
0.61241,51.187
0.61264,52.023
0.61283,51.656
0.61302,51.801
0.61321,51.756
0.61346,51.591
0.61363,50.441
0.61381,50.093
0.614,50.754
0.61419,51.615
0.61444,52.048
0.61466,51.856
0.61486,51.386
0.61506,50.58
0.61523,50.296
0.61539,50.727
0.61558,51.496
0.61582,52.118
0.61598,51.827
0.61623,51.325
0.61642,50.636
0.61662,50.122
0.61681,50.729
0.61702,51.21
0.61721,51.685
0.61743,51.961
0.61762,51.779
0.61785,51.163
0.61801,50.117
0.61819,49.89
0.61836,50.255
0.61857,51.153
0.61881,51.78
0.61902,51.5
0.61921,51.401
0.61945,50.746
0.6196,49.914
0.6198,50.527
0.62,50.995
0.6202,51.427
0.62039,51.397
0.62062,51.312
0.62081,50.382
0.62098,50.013
0.62119,50.388
0.62137,51.073
0.62159,51.898
0.62182,51.947
0.62204,51.706
0.62223,51.363
0.62245,50.606
0.62265,49.931
0.6228,49.981
0.623,50.755
0.62321,51.315
0.6234,51.729
0.62361,51.735
0.62381,51.448
0.62404,50.915
0.62423,50.161
0.62441,49.922
0.62462,50.367
0.62482,51.004
0.62504,51.401
0.62523,51.405
0.62545,51.478
0.62565,50.926
0.62584,50.11
0.62601,49.891
0.62618,49.827
0.62639,50.719
0.62658,51.427
0.6268,51.898
0.62704,51.686
0.62723,50.89
0.62745,50.277
0.62763,49.547
0.62782,49.887
0.62801,50.131
0.62818,51.163
0.6284,51.596
0.62862,51.369
0.62884,50.916
0.62903,50.248
0.62919,49.758
0.62939,49.997
0.62959,50.603
0.62979,51.276
0.63004,51.41
0.63025,50.882
0.63045,50.021
0.63063,49.751
0.63082,49.906
0.63097,49.814
0.63117,50.657
0.63138,51.247
0.6316,51.293
0.63181,50.715
0.632,50.491
0.63224,50.651
0.63243,49.61
0.63263,49.473
0.63281,49.73
0.633,50.301
0.6332,50.991
0.6334,51.079
0.63362,51.464
0.63383,50.813
0.63404,50.498
0.63424,49.512
0.6344,48.955
0.63462,49.383
0.63479,49.876
0.63501,50.863
0.63524,51.152
0.63544,51.081
0.63566,50.626
0.63587,49.92
0.63605,49.17
0.63622,49.326
0.63641,49.886
0.6366,50.836
0.63682,51.107
0.63705,50.947
0.63724,50.339
0.63745,49.777
0.63764,49.379
0.63781,49.739
0.63801,50.717
0.63825,51.072
0.63846,51.039
0.63867,50.244
0.63888,49.487
0.63906,49.109
0.63922,49.239
0.63939,50.271
0.63962,51.103
0.63984,51.201
0.64003,50.54
0.64022,49.902
0.64041,49.898
0.64064,49.945
0.64086,49.645
0.64104,49.409
0.64123,49.884
0.64143,50.176
0.64164,50.692
0.64183,50.549
0.64201,50.284
0.64225,49.913
0.64242,49.209
0.6426,49.159
0.6428,49.316
0.64297,49.851
0.64321,50.675
0.64344,50.942
0.64365,50.588
0.64386,49.826
0.64403,48.89
0.64421,48.991
0.64438,48.968
0.64459,49.652
0.64477,50.331
0.64498,50.796
0.64521,50.447
0.64541,49.855
0.64561,49.901
0.64582,49.803
0.64604,49.281
0.64621,48.764
0.64642,48.952
0.64659,49.404
0.64679,50.347
0.64701,50.907
0.64724,50.657
0.64743,49.91
0.64761,49.079
0.64781,48.66
0.64798,48.741
0.64814,49.266
0.64836,50.245
0.6486,50.73
0.64881,50.722
0.64904,50.087
0.64924,49.735
0.64944,49.207
0.64964,48.502
0.64983,48.477
0.64999,48.812
0.65018,49.614
0.6504,50.631
0.65061,50.695
0.65082,50.261
0.65102,49.596
0.65122,48.948
0.65141,48.494
0.65158,48.28
0.65179,49.257
0.652,50.285
0.65223,50.78
0.65246,50.561
0.65265,49.696
0.65284,49.032
0.65303,48.586
0.65321,48.569
0.65341,48.787
0.65357,49.477
0.65377,50.375
0.654,50.59
0.65423,50.34
0.65441,49.706
0.65463,49.346
0.65484,48.838
0.65504,48.559
0.65521,49.012
0.6554,49.538
0.65561,50.193
0.65581,50.086
0.65603,50.093
0.65621,49.696
0.65642,49.051
0.6566,48.332
0.65678,48.135
0.657,48.673
0.65719,49.521
0.6574,50.219
0.65761,50.592
0.65784,50.181
0.65805,49.581
0.65824,49.003
0.65844,48.279
0.65861,48.075
0.65879,48.38
0.65898,49.221
0.65917,49.65
0.6594,50.135
0.65959,49.547
0.65981,49.225
0.66,48.789
0.6602,48.612
0.66039,48.869
0.66059,49.489
0.66081,50.043
0.66103,49.973
0.66125,49.492
0.66145,48.904
0.66165,48.044
0.66182,47.836
0.66198,47.869
0.66216,48.648
0.66238,49.817
0.66258,50.114
0.66281,50.115
0.66303,49.1
0.66321,48.431
0.66342,48.395
0.6636,48.688
0.66383,49.391
0.66404,49.301
0.66428,49.146
0.66446,48.606
0.66463,48.282
0.66483,48.633
0.66503,49.074
0.66523,49.544
0.66543,49.63
0.66562,49.385
0.66583,48.902
0.66605,48.335
0.66624,48.154
0.66643,48.227
0.66664,48.962
0.66686,49.296
0.66706,49.682
0.66728,49.515
0.66746,48.914
0.66766,48.608
0.66782,48.459
0.66803,48.709
0.66823,49.074
0.66842,48.818
0.66866,48.679
0.66882,48.053
0.66901,48.664
0.66922,49.182
0.66944,49.476
0.66966,49.433
0.66985,49.271
0.67005,49.41
0.67024,48.969
0.67045,48.746
0.67062,48.496
0.6708,48.812
0.67102,49.119
0.67124,48.949
0.67143,48.318
0.67161,48.064
0.6718,48.605
0.67202,49.383
0.67223,49.212
0.67245,49.202
0.67264,48.855
0.67282,48.858
0.67305,48.791
0.67324,48.392
0.67342,47.929
0.67359,48.126
0.67378,48.766
0.67398,49.081
0.67418,49.07
0.67442,48.84
0.67461,48.521
0.67483,48.684
0.67503,48.713
0.67524,48.164
0.67542,48.088
0.67559,48.253
0.67579,49.088
0.676,48.965
0.67619,49.137
0.6764,49.086
0.67661,48.682
0.67679,48.173
0.67697,48.246
0.6772,48.862
0.67741,48.758
0.67763,48.595
0.67783,48.19
0.67804,47.712
0.67822,47.925
0.6784,48.64
0.67862,49.279
0.67884,49.318
0.67904,48.549
0.67922,47.965
0.6794,47.624
0.6796,48.168
0.67977,48.41
0.67998,48.801
0.68022,48.999
0.68042,48.587
0.68062,48.316
0.68081,48.239
0.68106,48.141
0.68122,47.682
0.68144,48.044
0.68161,48.346
0.68182,48.337
0.68204,48.312
0.68223,47.978
0.68243,47.693
0.68262,47.394
0.68278,47.405
0.68297,48.453
0.68319,48.781
0.6834,48.797
0.68362,48.68
0.68382,48.415
0.68402,48.208
0.68422,48.221
0.68445,48.249
0.68463,48.143
0.68482,48.423
0.68501,48.574
0.68521,48.662
0.68541,48.502
0.68562,48.293
0.68582,48.206
0.68598,48.008
0.6862,48.23
0.68639,48.576
0.68659,48.501
0.68683,48.581
0.68704,48.003
0.68723,47.914
0.68741,47.787
0.68761,48.321
0.68783,48.413
0.68802,48.246
0.68822,48.12
0.6884,47.925
0.68861,47.911
0.68878,48.056
0.689,48.272
0.68922,48.336
0.6894,48.104
0.68963,48.26
0.68981,47.992
0.69001,48.04
0.69022,48.138
0.69042,47.842
0.6906,47.906
0.6908,47.786
0.69103,47.515
0.69116,46.979
0.69134,47.766
0.69157,48.297
0.69178,48.401
0.69201,48.481
0.69222,48.449
0.69243,48.083
0.69264,47.841
0.69283,47.763
0.69304,47.728
0.69325,47.705
0.69344,47.923
0.69362,47.898
0.69383,47.893
0.69404,47.953
0.6942,47.959
0.69442,48.276
0.69462,48.127
0.69485,47.984
0.69504,47.42
0.69524,47.428
0.69544,47.395
0.69563,47.873
0.69585,48.476
0.69606,48.7
0.69627,48.176
0.69646,47.801
0.69663,47.565
0.69682,47.943
0.69705,48.012
0.69724,47.626
0.6974,47.324
0.69761,47.417
0.69783,47.494
0.69804,47.465
0.69824,47.511
0.69844,47.771
0.69865,48.076
0.69886,47.701
0.69903,47.574
0.69926,47.94
0.69944,47.72
0.69964,47.398
0.69981,47.537
0.69998,47.557
0.70021,47.889
0.70041,48.005
0.70062,48.156
0.70086,47.993
0.70106,47.302
0.70122,47.486
0.70144,47.775
0.70165,48.083
0.70182,47.866
0.70202,48.067
0.70221,48.225
0.70241,48.006
0.70263,47.913
0.70283,47.505
0.70301,46.98
0.7032,47.146
0.7034,47.21
0.70359,47.802
0.70379,48.466
0.70404,48.848
0.70428,48.174
0.70446,46.976
0.70462,46.546
0.70479,46.878
0.70501,47.177
0.7052,47.364
0.70542,47.542
0.7056,47.528
0.7058,47.466
0.706,47.583
0.70618,47.776
0.70638,48.003
0.70661,48.411
0.70682,47.877
0.70703,47.68
0.70723,47.267
0.70743,47.121
0.70762,46.92
0.70782,47.083
0.70803,46.996
0.7082,47.149
0.70841,47.52
0.70862,47.709
0.7088,47.669
0.70902,47.544
0.70921,47.319
0.7094,47.303
0.7096,47.137
0.70982,47.163
0.71001,47.216
0.71024,47.302
0.71043,47.521
0.71061,47.59
0.71083,48.041
0.71105,47.536
0.71121,46.98
0.7114,46.935
0.71162,47.476
0.71181,47.519
0.71199,47.475
0.7122,47.646
0.71239,47.639
0.71259,47.555
0.71282,47.757
0.71302,47.207
0.71324,47.024
0.71342,47.056
0.71364,47.522
0.71382,47.588
0.71402,47.866
0.71423,47.826
0.71442,47.232
0.71463,47.021
0.71481,46.636
0.71501,46.967
0.71518,47.25
0.71541,47.657
0.71562,47.435
0.71582,47.032
0.71603,46.999
0.71621,47.112
0.71643,47.126
0.71664,47.158
0.71682,46.822
0.71703,47.269
0.7172,47.215
0.71742,47.222
0.71759,47.03
0.71779,47.19
0.718,47.422
0.71819,47.145
0.71839,47.602
0.7186,47.602
0.71882,47.548
0.71901,47.286
0.71923,47.617
0.71942,47.492
0.71961,47.674
0.71982,47.91
0.72,47.99
0.72019,47.799
0.7204,47.791
0.72061,47.419
0.72079,47.311
0.72099,47.355
0.7212,47.483
0.72142,47.507
0.72161,47.349
0.72184,47.251
0.72203,46.825
0.72223,47.191
0.72243,47.205
0.72265,47.154
0.72284,46.515
0.723,46.706
0.72319,47.021
0.72342,47.741
0.72363,47.673
0.72384,47.294
0.72403,46.787
0.72425,46.92
0.72444,46.791
0.72465,46.909
0.72484,47.061
0.72505,47.025
0.72527,46.997
0.72543,46.515
0.72564,46.731
0.72582,46.904
0.72603,47.194
0.72624,46.934
0.72643,46.802
0.72665,46.595
0.72682,46.478
0.72706,46.655
0.72724,46.554
0.72743,46.582
0.72766,46.803
0.72783,46.553
0.72803,47.143
0.72824,46.926
0.72843,46.985
0.72862,46.894
0.72879,46.84
0.72903,47.422
0.72925,47.184
0.72945,46.581
0.72963,45.952
0.72984,46.512
0.73003,46.787
0.73024,47.015
0.73044,47.066
0.73062,47.032
0.73083,46.936
0.73103,46.765
0.7312,46.494
0.73142,46.755
0.7316,46.534
0.73182,46.668
0.73199,46.564
0.73222,47.027
0.7324,46.719
0.73261,46.721
0.73281,47.052
0.73301,47.201
0.73325,47.228
0.73344,46.569
0.73362,46.29
0.73382,46.245
0.73399,46.322
0.7342,46.879
0.73438,46.873
0.73459,46.673
0.7348,46.832
0.73499,47.388
0.73521,47.738
0.73547,47.115
0.73561,46.551
0.73584,46.566
0.73602,46.379
0.73621,46.766
0.73641,46.968
0.7366,47.382
0.73681,47.231
0.737,46.795
0.73722,46.625
0.73741,46.017
0.7376,46.217
0.73782,46.678
0.73803,47.371
0.73822,47.918
0.73845,47.566
0.7387,46.778
0.73882,45.354
0.73902,45.682
0.73921,45.808
0.73939,46.109
0.73959,46.553
0.7398,46.776
0.74002,46.714
0.74022,46.47
0.74043,46.661
0.74065,46.64
0.74085,46.141
0.74103,45.92
0.74122,46.089
0.74141,46.203
0.74162,46.637
0.7418,46.949
0.74201,47.289
0.7422,47.303
0.74243,47.15
0.74264,45.927
0.74283,45.505
0.74302,45.519
0.7432,45.979
0.74343,46.488
0.74362,46.554
0.74383,46.867
0.74403,47.239
0.74424,47.023
0.74444,46.436
0.74461,45.548
0.74478,45.701
0.74499,46.101
0.7452,46.431
0.74539,46.655
0.74561,46.759
0.74583,46.595
0.74603,46.012
0.74624,46.068
0.74642,45.835
0.74661,46.109
0.7468,46.594
0.74702,47.193
0.74723,46.944
0.74742,46.365
0.74761,45.782
0.74779,45.595
0.748,45.795
0.7482,46.088
0.7484,46.116
0.74862,46.337
0.74881,46.702
0.74902,46.951
0.74923,46.716
0.74943,46.36
0.74965,46.218
0.74981,45.498
0.75002,45.623
0.75019,45.78
0.75036,46.458
0.75058,47.177
0.75083,47.115
0.75105,46.462
0.75125,45.841
0.75145,45.312
0.75163,45.023
0.75182,45.14
0.75204,45.83
0.75225,46.004
0.75242,46.511
0.75263,47.074
0.75285,47.227
0.75307,46.36
0.75323,45.468
0.75343,45.358
0.75362,45.758
0.75385,46.426
0.75405,46.585
0.75423,46.617
0.75449,46.397
0.75468,45.684
0.75485,45.232
0.75503,45.362
0.75521,45.479
0.75543,46.207
0.7556,46.51
0.75581,47.129
0.75603,46.879
0.75625,46.093
0.75645,45.389
0.75664,45.212
0.75684,45.456
0.75702,45.6
0.75723,46.092
0.75742,46.715
0.75762,46.929
0.75783,46.832
0.75805,46.634
0.75823,45.899
0.75844,45.671
0.75862,45.359
0.75879,45.267
0.75899,45.456
0.75919,45.752
0.75941,45.925
0.75962,46.328
0.75981,46.536
0.76001,46.666
0.76027,46.501
0.76043,45.273
0.76065,45.206
0.76079,45.078
0.76101,45.733
0.76121,45.994
0.7614,46.29
0.76159,46.82
0.76178,46.953
0.762,47.023
0.76223,46.475
0.76244,45.263
0.7626,44.538
0.76281,44.776
0.76299,45.507
0.7632,45.859
0.7634,46.357
0.76362,46.688
0.76384,46.383
0.76403,45.851
0.7642,45.273
0.76439,45.282
0.76459,45.514
0.76478,45.727
0.76497,46.166
0.76519,46.772
0.76544,46.723
0.76565,46.237
0.76585,45.136
0.76603,44.905
0.76621,45.165
0.76641,45.662
0.76659,45.816
0.76678,46.616
0.76699,46.958
0.76721,46.766
0.76743,46.115
0.76763,45.294
0.7678,44.986
0.76801,45.27
0.76823,45.74
0.76841,46.058
0.76862,46.551
0.76886,46.358
0.76904,45.465
0.76923,45.15
0.76941,45.067
0.76961,45.318
0.76979,45.616
0.76997,46.173
0.77019,46.976
0.77041,47.178
0.77063,46.858
0.77085,45.939
0.77103,45.057
0.77122,44.924
0.7714,45.23
0.77164,45.865
0.77182,46.013
0.77201,46.479
0.77221,47.074
0.77244,46.615
0.77267,45.729
0.77283,44.663
0.77298,44.057
0.77317,45.005
0.77337,45.904
0.77358,46.685
0.77381,46.773
0.77404,46.553
0.77425,45.873
0.77447,45.101
0.77463,44.275
0.77479,44.334
0.775,44.981
0.77521,45.504
0.77538,46.075
0.77559,46.974
0.77582,46.989
0.77604,46.263
0.77622,45.134
0.77641,44.618
0.77659,44.497
0.7768,44.966
0.77702,45.65
0.7772,46.089
0.77743,46.478
0.77764,46.312
0.77786,45.834
0.77803,45.04
0.7782,44.923
0.7784,45.026
0.77858,45.255
0.77877,45.508
0.779,46.142
0.77921,46.446
0.77943,46.457
0.77966,45.797
0.77986,44.839
0.78005,44.428
0.78025,44.547
0.78043,44.814
0.78062,45.325
0.78084,45.638
0.78103,45.998
0.78125,46.528
0.78145,46.04
0.78166,45.483
0.78181,45.061
0.78203,45.02
0.78223,45.028
0.78242,45.148
0.78266,45.49
0.78283,45.774
0.78305,46.196
0.78328,46.057
0.78348,45.247
0.78365,44.926
0.78384,45.163
0.78406,45.424
0.78423,45.602
0.78442,46.042
0.78465,46.139
0.78484,45.598
0.78503,45.098
0.78524,44.872
0.78542,44.961
0.78563,45.306
0.78583,45.856
0.78607,46.613
0.78625,46.367
0.78648,45.933
0.78668,45.152
0.78687,44.137
0.78702,44.452
0.7872,44.812
0.78742,45.285
0.78758,45.479
0.78779,46.37
0.78802,46.996
0.78825,46.393
0.78846,45.308
0.78864,44.844
0.78884,44.818
0.78902,44.676
0.78922,44.828
0.78941,45.071
0.78959,45.582
0.7898,46.221
0.79001,46.66
0.79021,46.369
0.79045,45.667
0.79063,44.634
0.7908,44.456
0.79099,44.638
0.79121,45.234
0.7914,45.286
0.79161,45.462
0.79181,45.874
0.792,46.021
0.79224,45.954
0.79244,45.259
0.79262,44.943
0.79281,44.986
0.79299,45.4
0.7932,45.911
0.7934,45.994
0.79363,45.517
0.79383,44.575
0.79398,44.244
0.79417,44.727
0.79436,45.403
0.79457,46.341
0.79481,46.69
0.79503,46.66
0.79524,45.91
0.79544,44.987
0.79568,44.323
0.7958,44.073
0.796,44.599
0.79622,44.934
0.79639,45.278
0.79659,45.84
0.7968,46.092
0.79702,45.939
0.79724,45.314
0.79741,44.669
0.79759,44.454
0.7978,44.618
0.79802,45.033
0.79818,45.269
0.79841,46.327
0.79863,46.581
0.79884,46.197
0.79907,45.604
0.79925,44.764
0.79944,44.262
0.79962,44.622
0.79982,44.827
0.79999,45.234
0.80017,45.474
0.80039,45.831
0.80064,45.48
0.80085,44.833
0.80099,44.512
0.80121,44.701
0.80141,45.132
0.8016,45.428
0.80181,46.345
0.80203,46.264
0.80226,46.042
0.80246,45.461
0.80262,45.117
0.80284,45.129
0.80302,44.823
0.80322,44.497
0.80339,44.772
0.80357,45.204
0.8038,46.24
0.80399,46.279
0.80422,45.98
0.80445,45.237
0.80462,44.726
0.80482,44.628
0.80503,44.605
0.8052,45.053
0.8054,45.586
0.80561,46.109
0.80582,45.942
0.80601,45.146
0.80622,44.967
0.8064,44.93
0.8066,45.045
0.80677,45.255
0.80699,45.723
0.80722,46.092